SpectraSuite Data File
++++++++++++++++++++++++++++++++++++
Date: Fri Nov 20 23:22:08 GMT 2020
User: Jason
Dark Spectrum Present: No
Reference Spectrum Present: No
Number of Sampled Component Spectra: 1
Spectrometers: USB4C01509
Integration Time (usec): 1000000 (USB4C01509)
Spectra Averaged: 10 (USB4C01509)
Boxcar Smoothing: 0 (USB4C01509)
Correct for Electrical Dark: No (USB4C01509)
Strobe/Lamp Enabled: No (USB4C01509)
Correct for Detector Non-linearity: No (USB4C01509)
Correct for Stray Light: No (USB4C01509)
Number of Pixels in Processed Spectrum: 3648
>>>>>Begin Processed Spectral Data<<<<<
179.08	1183.73
179.29	1183.73
179.50	1183.73
179.72	1212.19
179.93	1206.25
180.15	2485.01
180.36	2090.77
180.58	3450.01
180.79	3335.32
181.00	2008.44
181.22	1998.20
181.43	3359.28
181.65	3635.96
181.86	2224.30
182.08	1769.04
182.29	3621.42
182.50	3160.02
182.72	1892.12
182.93	2360.90
183.15	3322.83
183.36	3572.89
183.57	1841.53
183.79	2140.95
184.00	3190.94
184.22	3408.23
184.43	2018.89
184.65	2168.39
184.86	3186.23
185.07	3219.61
185.29	1797.09
185.50	1959.29
185.72	3427.89
185.93	3400.65
186.14	2016.43
186.36	1963.39
186.57	3023.42
186.79	3923.91
187.00	2074.18
187.21	2184.98
187.43	3587.43
187.64	3298.87
187.86	1957.24
188.07	2383.22
188.28	3117.62
188.50	3701.50
188.71	2297.41
188.93	1962.77
189.14	2944.98
189.35	2854.46
189.57	1968.30
189.78	1990.01
190.00	3045.53
190.21	3314.64
190.42	1921.20
190.64	1824.74
190.85	3319.14
191.07	3524.96
191.28	1903.38
191.49	2170.44
191.71	3224.94
191.92	3343.51
192.14	1847.68
192.35	2266.90
192.56	3257.70
192.78	3445.71
192.99	1934.10
193.20	2285.12
193.42	3436.70
193.63	3466.80
193.85	2204.43
194.06	1945.78
194.27	2939.86
194.49	3675.69
194.70	2140.54
194.91	1966.66
195.13	3062.33
195.34	3132.78
195.56	1995.54
195.77	2073.57
195.98	3493.02
196.20	3276.14
196.41	2035.48
196.62	2109.82
196.84	2925.32
197.05	3300.51
197.27	1905.02
197.48	2102.24
197.69	2822.10
197.91	3032.02
198.12	1991.65
198.33	1719.68
198.55	3897.69
198.76	3525.78
198.97	1883.11
199.19	1946.39
199.40	3004.17
199.61	3480.32
199.83	1974.45
200.04	1893.14
200.26	3056.59
200.47	3587.02
200.68	1941.88
200.90	1933.69
201.11	3430.35
201.32	3561.83
201.54	1744.66
201.75	2020.94
201.96	2853.03
202.18	2919.17
202.39	2240.68
202.60	1950.08
202.82	2726.05
203.03	3173.33
203.24	2071.52
203.46	2233.31
203.67	3168.21
203.88	3494.86
204.10	1998.61
204.31	1874.30
204.52	3447.96
204.74	3464.34
204.95	2047.76
205.16	2101.63
205.38	3405.36
205.59	3681.84
205.80	1944.75
206.02	1842.56
206.23	3829.50
206.44	3165.75
206.66	2022.57
206.87	1945.37
207.08	3108.20
207.30	3737.54
207.51	2143.61
207.72	2239.45
207.94	3276.34
208.15	3494.65
208.36	2094.66
208.58	2069.47
208.79	3305.83
209.00	3517.59
209.22	2031.79
209.43	2045.10
209.64	3169.64
209.86	3088.75
210.07	2071.11
210.28	1885.56
210.50	3209.58
210.71	3672.83
210.92	2022.98
211.13	1955.40
211.35	2745.92
211.56	3336.55
211.77	2128.66
211.99	1919.36
212.20	3006.01
212.41	3045.94
212.63	1858.74
212.84	2075.00
213.05	3721.77
213.27	3514.11
213.48	1890.68
213.69	2043.67
213.90	2379.74
214.12	3272.04
214.33	1888.84
214.54	2144.22
214.76	2917.74
214.97	3534.38
215.18	1833.34
215.40	2548.70
215.61	3405.98
215.82	3411.30
216.03	1841.33
216.25	2044.49
216.46	2862.86
216.67	3656.65
216.89	1874.10
217.10	1883.72
217.31	2851.39
217.52	3219.61
217.74	1981.61
217.95	2024.01
218.16	2911.39
218.38	3610.98
218.59	1859.35
218.80	1973.42
219.01	3155.92
219.23	3585.79
219.44	1840.30
219.65	1996.77
219.87	2541.32
220.08	3363.17
220.29	1903.59
220.50	2119.24
220.72	3456.15
220.93	3200.98
221.14	1944.14
221.35	2096.51
221.57	2936.58
221.78	3659.11
221.99	1930.82
222.21	1865.29
222.42	3065.19
222.63	3523.94
222.84	1921.61
223.06	2162.45
223.27	3240.09
223.48	4122.77
223.69	1799.55
223.91	2091.80
224.12	3124.18
224.33	3638.22
224.54	2205.46
224.76	2004.76
224.97	3188.89
225.18	3364.81
225.39	2065.99
225.61	2024.21
225.82	3216.54
226.03	3687.78
226.24	1835.59
226.46	2248.67
226.67	2528.01
226.88	3285.97
227.09	2118.01
227.31	2058.62
227.52	3262.41
227.73	3506.12
227.94	2017.45
228.16	2048.58
228.37	3016.86
228.58	3552.20
228.79	2058.82
229.01	2036.91
229.22	3090.59
229.43	3365.84
229.64	2235.77
229.86	2091.80
230.07	3299.89
230.28	3788.74
230.49	2155.08
230.71	1955.81
230.92	3250.74
231.13	3791.20
231.34	1980.39
231.55	2093.02
231.77	2790.15
231.98	3571.04
232.19	1889.46
232.40	1939.43
232.62	2807.36
232.83	3097.76
233.04	2129.27
233.25	2131.94
233.46	2903.20
233.68	3490.56
233.89	2313.80
234.10	2165.73
234.31	3128.68
234.53	3733.24
234.74	1944.14
234.95	2098.35
235.16	2970.99
235.37	3491.17
235.59	1737.50
235.80	2157.74
236.01	2765.58
236.22	3339.01
236.44	2062.92
236.65	1843.17
236.86	2810.22
237.07	3449.39
237.28	1959.09
237.50	1974.86
237.71	2667.48
237.92	4438.15
238.13	1872.25
238.34	2133.37
238.56	2594.16
238.77	3660.33
238.98	1917.51
239.19	1949.46
239.40	3130.93
239.62	3948.28
239.83	2162.45
240.04	2062.92
240.25	3077.07
240.46	3262.21
240.68	1847.47
240.89	1883.11
241.10	3295.18
241.31	3300.71
241.52	1809.99
241.73	1836.62
241.95	3206.91
242.16	3739.59
242.37	1907.68
242.58	2043.87
242.79	3076.25
243.01	3263.64
243.22	2107.36
243.43	1761.87
243.64	3148.75
243.85	3547.08
244.06	1949.87
244.28	1937.79
244.49	3293.13
244.70	3830.52
244.91	2013.15
245.12	2008.03
245.34	3075.64
245.55	3319.14
245.76	1868.16
245.97	1888.23
246.18	3183.36
246.39	3262.21
246.61	2033.43
246.82	2040.19
247.03	3055.98
247.24	3182.95
247.45	1927.14
247.66	1998.82
247.88	2638.60
248.09	3313.00
248.30	1864.88
248.51	1811.63
248.72	3116.19
248.93	3238.04
249.15	1915.26
249.36	2336.53
249.57	3291.29
249.78	3457.38
249.99	2020.12
250.20	1890.68
250.41	3064.99
250.63	3309.52
250.84	1757.98
251.05	1987.55
251.26	2980.00
251.47	3116.60
251.68	2163.88
251.89	2197.68
252.11	2509.17
252.32	3129.91
252.53	1871.64
252.74	2003.94
252.95	3364.61
253.16	2716.63
253.37	1909.94
253.59	2011.51
253.80	3292.11
254.01	3328.36
254.22	1899.70
254.43	2319.94
254.64	3070.72
254.85	3416.22
255.07	1901.13
255.28	1907.89
255.49	2867.77
255.70	3548.72
255.91	1872.25
256.12	1863.04
256.33	3218.79
256.54	3626.13
256.76	1863.45
256.97	1897.85
257.18	2921.63
257.39	3266.71
257.60	2178.42
257.81	1948.44
258.02	3261.19
258.23	3536.64
258.45	2200.13
258.66	1947.62
258.87	3687.37
259.08	3593.78
259.29	1934.51
259.50	1976.70
259.71	3383.65
259.92	3733.24
260.13	1850.34
260.35	1961.75
260.56	3017.68
260.77	3608.32
260.98	1915.47
261.19	1988.17
261.40	2929.41
261.61	2691.65
261.82	1819.83
262.03	1940.66
262.25	3192.37
262.46	3570.84
262.67	2126.20
262.88	2040.60
263.09	3231.49
263.30	2955.83
263.51	1759.00
263.72	2112.07
263.93	3435.26
264.14	3756.79
264.36	1892.94
264.57	2130.71
264.78	3604.83
264.99	3418.06
265.20	1922.84
265.41	2230.24
265.62	2874.12
265.83	3646.20
266.04	2094.87
266.25	1933.69
266.46	3476.63
266.67	3349.86
266.89	1730.33
267.10	1887.82
267.31	3299.28
267.52	3189.92
267.73	2024.62
267.94	2022.98
268.15	3046.35
268.36	3555.07
268.57	1832.52
268.78	1956.01
268.99	2868.79
269.20	2936.99
269.41	1927.34
269.63	1856.48
269.84	2895.83
270.05	3563.47
270.26	1962.98
270.47	1951.92
270.68	3260.16
270.89	3626.75
271.10	1881.88
271.31	1983.25
271.52	2935.15
271.73	3293.54
271.94	1926.93
272.15	1967.28
272.36	2847.50
272.57	3650.91
272.78	2126.41
273.00	1930.42
273.21	2930.44
273.42	3441.41
273.63	1940.66
273.84	2012.95
274.05	3000.48
274.26	3271.83
274.47	2130.71
274.68	2376.46
274.89	3193.19
275.10	3199.75
275.31	2252.77
275.52	2253.18
275.73	3102.26
275.94	3256.07
276.15	2229.21
276.36	2074.39
276.57	2907.09
276.78	2962.18
276.99	2092.61
277.20	2051.04
277.41	3096.32
277.63	3121.72
277.84	2071.93
278.05	1963.18
278.26	2926.14
278.47	3031.81
278.68	2254.61
278.89	1888.43
279.10	3044.92
279.31	3125.81
279.52	2092.00
279.73	2109.82
279.94	3093.25
280.15	3523.94
280.36	2134.39
280.57	2288.20
280.78	3157.76
280.99	3108.20
281.20	2256.04
281.41	2039.98
281.62	2912.01
281.83	3128.68
282.04	2034.25
282.25	2256.66
282.46	3143.02
282.67	2746.53
282.88	2090.16
283.09	2083.60
283.30	3224.73
283.51	3234.97
283.72	2217.75
283.93	2204.84
284.14	3171.07
284.35	3050.04
284.56	1991.24
284.77	2127.23
284.98	2788.31
285.19	3285.35
285.40	2210.58
285.61	2171.67
285.82	2994.74
286.03	3248.69
286.24	1988.37
286.45	2043.05
286.66	2785.03
286.87	3316.48
287.08	2196.45
287.29	2018.07
287.50	3317.30
287.71	3226.57
287.92	2046.94
288.13	2101.42
288.34	2874.94
288.55	3077.69
288.76	2009.47
288.97	2196.45
289.18	2940.27
289.39	3084.24
289.60	1875.94
289.81	2208.12
290.02	2992.29
290.23	2984.30
290.44	2163.68
290.65	2146.48
290.86	2724.21
291.07	3204.46
291.28	2330.79
291.49	2015.61
291.70	2924.91
291.91	2594.37
292.12	2053.50
292.33	1942.91
292.54	3410.07
292.75	3291.70
292.96	2195.42
293.17	2223.27
293.38	3145.07
293.58	3305.63
293.79	1914.03
294.00	2289.63
294.21	2831.52
294.42	3500.39
294.63	2066.20
294.84	2059.64
295.05	3090.59
295.26	3499.36
295.47	1944.55
295.68	1943.73
295.89	2950.10
296.10	3302.55
296.31	2065.99
296.52	2301.10
296.73	2821.08
296.94	3151.41
297.15	2115.96
297.36	2293.11
297.57	2712.53
297.78	3122.74
297.98	2160.40
298.19	2459.20
298.40	3112.71
298.61	3002.12
298.82	2129.27
299.03	2436.67
299.24	3144.04
299.45	3604.83
299.66	1954.17
299.87	2069.06
300.08	2891.73
300.29	3106.97
300.50	2024.21
300.71	2278.37
300.92	3112.30
301.13	2994.95
301.33	2104.08
301.54	2254.20
301.75	2853.43
301.96	3173.94
302.17	2051.04
302.38	2004.14
302.59	3080.55
302.80	3306.45
303.01	2426.64
303.22	2381.79
303.43	3023.83
303.64	3213.67
303.85	2171.67
304.05	2146.07
304.26	3098.99
304.47	3076.66
304.68	2033.84
304.89	2162.04
305.10	2710.28
305.31	3077.48
305.52	2073.16
305.73	2040.60
305.94	2763.12
306.15	3164.52
306.35	2063.53
306.56	2004.35
306.77	2928.39
306.98	2982.46
307.19	2118.01
307.40	2146.27
307.61	3101.03
307.82	3180.91
308.03	2278.57
308.24	2347.18
308.45	3229.03
308.65	3452.06
308.86	2105.52
309.07	2282.26
309.28	2948.05
309.49	2839.92
309.70	2153.03
309.91	1999.43
310.12	2879.24
310.33	3064.17
310.53	1946.80
310.74	2053.91
310.95	3321.40
311.16	3174.35
311.37	1979.36
311.58	2305.60
311.79	3138.72
312.00	3006.83
312.20	2061.08
312.41	1956.22
312.62	3089.98
312.83	3297.43
313.04	2058.00
313.25	2398.99
313.46	2866.75
313.67	3336.96
313.87	2153.23
314.08	2204.02
314.29	2980.61
314.50	3324.26
314.71	2130.09
314.92	2029.54
315.13	3283.51
315.34	3202.61
315.54	2070.09
315.75	1969.33
315.96	2869.00
316.17	3005.80
316.38	1890.07
316.59	1981.41
316.80	3112.91
317.00	3291.70
317.21	2289.63
317.42	2083.19
317.63	2755.13
317.84	2993.11
318.05	2305.19
318.26	2070.70
318.46	3354.16
318.67	2598.87
318.88	2126.82
319.09	2177.61
319.30	2753.29
319.51	3123.36
319.71	2047.35
319.92	2058.41
320.13	3032.84
320.34	2740.59
320.55	2092.61
320.76	2114.94
320.97	2983.28
321.17	3192.58
321.38	2046.33
321.59	2116.58
321.80	3229.65
322.01	2981.43
322.22	2209.35
322.42	1978.13
322.63	2603.38
322.84	3455.54
323.05	2255.43
323.26	2264.64
323.47	2420.29
323.67	3100.42
323.88	1998.82
324.09	2201.98
324.30	3075.64
324.51	3136.67
324.71	1944.34
324.92	2007.01
325.13	3073.59
325.34	3014.81
325.55	1948.64
325.76	2171.05
325.96	3146.91
326.17	3353.55
326.38	1865.90
326.59	2177.61
326.80	3092.64
327.00	2975.90
327.21	1953.97
327.42	2322.60
327.63	2863.27
327.84	3032.63
328.04	2228.19
328.25	2006.19
328.46	2987.78
328.67	3085.67
328.88	2129.48
329.08	2001.89
329.29	2719.50
329.50	3055.36
329.71	2186.41
329.92	2047.35
330.12	2781.96
330.33	3094.07
330.54	2051.45
330.75	2506.10
330.96	3029.56
331.16	3095.71
331.37	1867.95
331.58	2201.98
331.79	2900.13
332.00	3007.65
332.20	1791.97
332.41	2122.11
332.62	3015.43
332.83	2901.97
333.03	1968.51
333.24	2573.68
333.45	3235.59
333.66	2851.18
333.87	2149.96
334.07	2062.92
334.28	2880.06
334.49	3330.00
334.70	2155.08
334.90	1850.34
335.11	3140.76
335.32	2925.73
335.53	1992.67
335.74	2175.15
335.94	3245.42
336.15	3302.76
336.36	2236.59
336.57	2211.60
336.77	2875.14
336.98	2534.36
337.19	2153.85
337.40	2000.46
337.60	2892.14
337.81	3003.96
338.02	1869.80
338.23	1851.77
338.43	2723.18
338.64	2968.53
338.85	2156.31
339.06	1999.64
339.26	2984.10
339.47	2888.86
339.68	1973.63
339.89	2201.36
340.09	3078.92
340.30	2918.36
340.51	2082.58
340.72	1979.16
340.92	3000.48
341.13	3000.07
341.34	1980.18
341.55	1977.31
341.75	2990.44
341.96	2858.76
342.17	1979.16
342.38	2089.13
342.58	3113.12
342.79	3222.07
343.00	2162.45
343.20	1974.45
343.41	2652.53
343.62	3090.38
343.83	2277.75
344.03	2058.00
344.24	2566.10
344.45	3302.96
344.66	1893.96
344.86	2196.65
345.07	2857.94
345.28	3122.33
345.48	2230.24
345.69	2095.89
345.90	2869.00
346.11	3116.80
346.31	2205.25
346.52	2102.24
346.73	2914.67
346.93	2967.71
347.14	1892.32
347.35	1800.37
347.56	3147.32
347.76	3269.79
347.97	2012.54
348.18	2130.09
348.38	3084.24
348.59	3219.41
348.80	1980.59
349.01	1948.44
349.21	2859.37
349.42	2866.13
349.63	2105.31
349.83	2156.72
350.04	3125.61
350.25	3192.78
350.45	2071.52
350.66	1941.68
350.87	2866.54
351.08	3017.48
351.28	2057.18
351.49	2000.46
351.70	2852.41
351.90	3506.12
352.11	1981.00
352.32	2489.31
352.52	3060.69
352.73	3154.90
352.94	2140.13
353.14	2108.38
353.35	2414.15
353.56	3268.56
353.76	2115.35
353.97	2216.72
354.18	3280.03
354.39	3162.68
354.59	2079.71
354.80	1963.59
355.01	2994.74
355.21	3347.40
355.42	2020.12
355.63	2164.09
355.83	2747.55
356.04	2972.63
356.25	2374.01
356.45	2425.00
356.66	2902.38
356.87	2938.43
357.07	2059.03
357.28	2076.23
357.49	2914.87
357.69	2622.42
357.90	1813.89
358.11	1888.64
358.31	3418.88
358.52	3157.56
358.72	2047.35
358.93	1905.02
359.14	3262.62
359.34	3256.88
359.55	2036.70
359.76	2044.90
359.96	2639.83
360.17	2568.77
360.38	2148.93
360.58	2017.66
360.79	3294.36
361.00	3217.36
361.20	1945.78
361.41	2072.95
361.62	2760.25
361.82	3217.56
362.03	2079.92
362.23	2083.81
362.44	3049.22
362.65	3334.50
362.85	2196.65
363.06	2234.74
363.27	2866.75
363.47	3219.00
363.68	2097.12
363.89	2023.19
364.09	3086.29
364.30	3312.79
364.50	2088.72
364.71	2232.29
364.92	2716.84
365.12	3153.26
365.33	2092.82
365.54	2126.20
365.74	2987.99
365.95	3070.93
366.15	2119.65
366.36	2273.04
366.57	3328.77
366.77	3235.38
366.98	2029.13
367.18	2144.43
367.39	3071.95
367.60	3213.26
367.80	1956.42
368.01	2156.31
368.22	2919.99
368.42	3390.21
368.63	2123.74
368.83	2156.72
369.04	2693.49
369.25	3451.65
369.45	2058.62
369.66	2320.55
369.86	3022.60
370.07	2989.62
370.28	1902.56
370.48	2325.67
370.69	2759.84
370.89	2947.23
371.10	1953.76
371.31	2207.10
371.51	2957.47
371.72	4118.87
371.92	2169.41
372.13	2247.85
372.33	3237.84
372.54	3088.95
372.75	2041.21
372.95	2166.75
373.16	2839.51
373.36	2906.89
373.57	2102.04
373.78	2233.72
373.98	3362.36
374.19	3147.32
374.39	2044.49
374.60	2008.44
374.80	3282.07
375.01	3019.12
375.22	1953.35
375.42	2201.36
375.63	2934.53
375.83	3328.97
376.04	2243.96
376.24	1906.25
376.45	2882.52
376.66	2804.08
376.86	1993.90
377.07	2076.44
377.27	2700.04
377.48	3225.35
377.68	2158.15
377.89	2049.61
378.09	2929.21
378.30	3090.18
378.51	2007.42
378.71	2157.94
378.92	2641.47
379.12	3100.01
379.33	1978.13
379.53	2437.90
379.74	3150.39
379.94	2947.64
380.15	2154.87
380.36	2139.31
380.56	3094.07
380.77	2969.96
380.97	2057.80
381.18	2323.83
381.38	2866.95
381.59	2934.53
381.79	2018.07
382.00	2198.08
382.20	2875.55
382.41	3107.38
382.61	2218.15
382.82	2061.69
383.03	2723.59
383.23	3415.40
383.44	2034.86
383.64	2011.72
383.85	2986.14
384.05	3051.06
384.26	2010.08
384.46	2205.66
384.67	3083.63
384.87	2903.81
385.08	1983.87
385.28	2142.79
385.49	3050.45
385.69	2935.97
385.90	2676.29
386.10	1988.78
386.31	2996.79
386.51	3337.57
386.72	2042.85
386.92	2259.93
387.13	2999.46
387.33	3275.32
387.54	2342.06
387.74	2031.79
387.95	3182.34
388.15	3046.97
388.36	2451.42
388.56	2176.99
388.77	3028.13
388.97	3549.54
389.18	2705.98
389.38	2764.96
389.59	3995.79
389.79	4181.95
390.00	3362.97
390.20	4143.25
390.41	4690.05
390.61	5121.77
390.82	4494.47
391.02	4925.36
391.23	6241.80
391.43	7014.70
391.64	6214.15
391.84	6334.98
392.05	7560.08
392.25	8228.33
392.46	7707.53
392.66	7994.86
392.87	9427.82
393.07	9660.68
393.28	8923.82
393.48	9277.30
393.69	10971.17
393.89	10870.21
394.10	10391.39
394.30	10446.28
394.51	11568.36
394.71	11472.31
394.92	10664.59
395.12	10891.10
395.32	13158.20
395.53	11911.19
395.73	11210.79
395.94	11207.92
396.14	11883.95
396.35	11998.02
396.55	11155.70
396.76	10896.22
396.96	11937.81
397.17	11656.22
397.37	10943.32
397.58	10998.21
397.78	11213.24
397.98	11521.87
398.19	10466.35
398.39	10827.41
398.60	10779.07
398.80	11278.98
399.01	10401.84
399.21	10457.13
399.42	11314.82
399.62	11308.68
399.83	10096.90
400.03	9867.93
400.23	10809.18
400.44	11451.01
400.64	9866.29
400.85	10014.77
401.05	11183.34
401.26	10712.92
401.46	10277.94
401.66	10492.36
401.87	11189.90
402.07	10715.79
402.28	9983.44
402.48	10471.67
402.69	11431.56
402.89	11485.62
403.09	10626.50
403.30	10324.63
403.50	11690.83
403.71	11554.84
403.91	10497.68
404.12	10879.63
404.32	11082.17
404.52	11440.77
404.73	10656.61
404.93	10146.46
405.14	10358.22
405.34	11436.88
405.54	10489.70
405.75	10451.81
405.95	11873.51
406.16	11436.88
406.36	10866.52
406.57	10652.71
406.77	11639.84
406.97	11746.53
407.18	10559.12
407.38	10707.80
407.59	11995.16
407.79	11637.79
407.99	10665.00
408.20	10372.55
408.40	11614.65
408.61	11004.76
408.81	10531.06
409.01	10442.18
409.22	11616.90
409.42	11571.84
409.63	10383.61
409.83	10311.73
410.03	10961.14
410.24	11105.93
410.44	10109.18
410.64	9955.79
410.85	10428.05
411.05	10624.66
411.26	8786.61
411.46	8690.15
411.66	9410.62
411.87	8941.43
412.07	7242.23
412.28	7038.87
412.48	7633.80
412.68	6812.16
412.89	5799.44
413.09	5392.71
413.29	5924.16
413.50	5840.19
413.70	4055.59
413.91	3916.54
414.11	4398.22
414.31	4171.30
414.52	2914.46
414.72	2737.72
414.92	3668.12
415.13	3557.73
415.33	2334.07
415.53	2336.73
415.74	3494.45
415.94	3290.27
416.14	2247.65
416.35	2018.07
416.55	3169.23
416.76	3169.03
416.96	2201.16
417.16	2172.49
417.37	3076.25
417.57	3151.41
417.77	1966.66
417.98	2251.54
418.18	2890.50
418.38	3255.86
418.59	2088.93
418.79	2053.09
418.99	2819.03
419.20	3271.63
419.40	2103.47
419.60	2286.35
419.81	3001.30
420.01	3087.93
420.21	2367.25
420.42	2291.68
420.62	2953.58
420.82	3005.60
421.03	2046.54
421.23	2250.31
421.43	2746.74
421.64	3045.94
421.84	1911.78
422.04	2123.54
422.25	2957.88
422.45	2859.37
422.65	1945.57
422.86	2286.15
423.06	2558.94
423.26	2992.90
423.47	2037.93
423.67	2205.66
423.87	2950.71
424.08	2714.79
424.28	2067.42
424.48	2207.51
424.68	3004.17
424.89	3063.56
425.09	2196.24
425.29	2232.29
425.50	2848.72
425.70	2899.51
425.90	2235.77
426.11	2040.80
426.31	3292.93
426.51	3137.69
426.71	2228.80
426.92	2221.43
427.12	3170.05
427.32	3027.72
427.53	2195.63
427.73	2362.13
427.93	3263.85
428.14	3332.66
428.34	2015.00
428.54	2247.85
428.74	3062.33
428.95	3326.72
429.15	2055.14
429.35	2127.23
429.56	2632.87
429.76	2915.28
429.96	2183.75
430.16	2143.40
430.37	3014.20
430.57	3084.04
430.77	2200.13
