SpectraSuite Data File
++++++++++++++++++++++++++++++++++++
Date: Fri Nov 20 23:25:28 GMT 2020
User: Jason
Dark Spectrum Present: No
Reference Spectrum Present: No
Number of Sampled Component Spectra: 1
Spectrometers: USB4C01509
Integration Time (usec): 1000000 (USB4C01509)
Spectra Averaged: 10 (USB4C01509)
Boxcar Smoothing: 0 (USB4C01509)
Correct for Electrical Dark: No (USB4C01509)
Strobe/Lamp Enabled: No (USB4C01509)
Correct for Detector Non-linearity: No (USB4C01509)
Correct for Stray Light: No (USB4C01509)
Number of Pixels in Processed Spectrum: 3648
>>>>>Begin Processed Spectral Data<<<<<
179.08	1206.66
179.29	1206.66
179.50	1206.66
179.72	1199.09
179.93	1198.47
180.15	2513.06
180.36	2067.01
180.58	3445.09
180.79	3321.19
181.00	1968.30
181.22	2022.98
181.43	3373.41
181.65	3598.90
181.86	2184.36
182.08	1806.51
182.29	3619.78
182.50	3201.18
182.72	1890.68
182.93	2372.37
183.15	3324.47
183.36	3580.67
183.57	1812.86
183.79	2140.13
184.00	3208.55
184.22	3370.96
184.43	1974.65
184.65	2193.58
184.86	3187.05
185.07	3216.95
185.29	1789.11
185.50	1932.67
185.72	3439.56
185.93	3394.92
186.14	1994.72
186.36	1973.83
186.57	3056.39
186.79	3923.70
187.00	2061.08
187.21	2178.01
187.43	3561.62
187.64	3305.01
187.86	1964.82
188.07	2369.91
188.28	3113.73
188.50	3696.38
188.71	2285.74
188.93	1962.57
189.14	2938.84
189.35	2867.77
189.57	1979.36
189.78	2000.46
190.00	3077.07
190.21	3305.63
190.42	1905.84
190.64	1801.60
190.85	3310.54
191.07	3509.40
191.28	1901.13
191.49	2186.62
191.71	3231.90
191.92	3341.47
192.14	1822.08
192.35	2240.89
192.56	3262.62
192.78	3469.67
192.99	1961.13
193.20	2275.29
193.42	3411.51
193.63	3433.62
193.85	2231.26
194.06	1951.71
194.27	2931.87
194.49	3712.56
194.70	2124.56
194.91	1966.05
195.13	3059.87
195.34	3123.56
195.56	1982.64
195.77	2099.99
195.98	3479.91
196.20	3241.12
196.41	2032.20
196.62	2110.64
196.84	2940.88
197.05	3300.92
197.27	1893.76
197.48	2086.88
197.69	2804.69
197.91	3025.87
198.12	1991.24
198.33	1706.57
198.55	3910.19
198.76	3516.16
198.97	1871.23
199.19	1982.23
199.40	2999.86
199.61	3486.26
199.83	1939.43
200.04	1886.38
200.26	3094.89
200.47	3613.85
200.68	1948.44
200.90	1901.13
201.11	3415.19
201.32	3562.24
201.54	1758.18
201.75	2021.35
201.96	2838.08
202.18	2920.81
202.39	2210.37
202.60	1956.42
202.82	2742.84
203.03	3190.12
203.24	2101.42
203.46	2223.27
203.67	3166.57
203.88	3460.04
204.10	1966.87
204.31	1898.26
204.52	3424.00
204.74	3463.52
204.95	2046.13
205.16	2109.20
205.38	3397.38
205.59	3690.23
205.80	1946.39
206.02	1851.57
206.23	3843.01
206.44	3149.78
206.66	2037.52
206.87	1966.25
207.08	3088.75
207.30	3747.17
207.51	2139.10
207.72	2253.58
207.94	3270.20
208.15	3485.85
208.36	2080.74
208.58	2058.41
208.79	3294.98
209.00	3535.41
209.22	2052.27
209.43	2020.73
209.64	3157.97
209.86	3093.87
210.07	2096.51
210.28	1873.69
210.50	3208.14
210.71	3671.80
210.92	2014.79
211.13	1989.81
211.35	2752.47
211.56	3313.61
211.77	2082.58
211.99	1913.83
212.20	3014.00
212.41	3025.05
212.63	1869.80
212.84	2025.03
213.05	3725.66
213.27	3493.02
213.48	1889.66
213.69	2044.90
213.90	2396.12
214.12	3263.03
214.33	1859.56
214.54	2178.42
214.76	2891.73
214.97	3518.41
215.18	1834.78
215.40	2582.08
215.61	3412.74
215.82	3407.82
216.03	1871.43
216.25	2026.26
216.46	2851.39
216.67	3669.14
216.89	1871.23
217.10	1858.53
217.31	2909.34
217.52	3189.71
217.74	1976.49
217.95	2020.94
218.16	2897.88
218.38	3609.95
218.59	1867.95
218.80	1989.60
219.01	3128.07
219.23	3590.09
219.44	1838.05
219.65	1969.33
219.87	2549.72
220.08	3350.27
220.29	1872.87
220.50	2116.17
220.72	3459.22
220.93	3212.65
221.14	1911.98
221.35	2081.76
221.57	2937.81
221.78	3637.81
221.99	1923.25
222.21	1855.05
222.42	3042.67
222.63	3511.65
222.84	1905.02
223.06	2154.87
223.27	3240.09
223.48	4118.47
223.69	1783.58
223.91	2107.77
224.12	3101.03
224.33	3603.40
224.54	2189.48
224.76	1990.83
224.97	3211.22
225.18	3381.81
225.39	2044.69
225.61	2013.77
225.82	3208.76
226.03	3706.21
226.24	1833.96
226.46	2282.87
226.67	2526.17
226.88	3314.23
227.09	2143.81
227.31	2074.18
227.52	3269.58
227.73	3455.95
227.94	1989.19
228.16	2043.26
228.37	3001.30
228.58	3573.71
228.79	2057.80
229.01	2038.55
229.22	3044.31
229.43	3345.56
229.64	2235.56
229.86	2071.32
230.07	3266.92
230.28	3768.88
230.49	2171.26
230.71	1961.95
230.92	3215.31
231.13	3780.55
231.34	1959.09
231.55	2085.86
231.77	2800.60
231.98	3570.22
232.19	1876.55
232.40	1957.24
232.62	2777.86
232.83	3069.91
233.04	2135.83
233.25	2099.17
233.46	2932.28
233.68	3515.34
233.89	2280.21
234.10	2159.58
234.31	3123.56
234.53	3722.18
234.74	1925.91
234.95	2079.51
235.16	2977.54
235.37	3503.46
235.59	1713.13
235.80	2175.76
236.01	2746.33
236.22	3362.97
236.44	2047.76
236.65	1839.49
236.86	2808.17
237.07	3421.54
237.28	1957.86
237.50	2008.03
237.71	2666.25
237.92	5279.66
238.13	1849.73
238.34	2122.31
238.56	2573.07
238.77	3683.68
238.98	1889.66
239.19	1948.44
239.40	3098.17
239.62	3955.65
239.83	2149.96
240.04	2078.69
240.25	3024.65
240.46	3253.40
240.68	1864.06
240.89	1889.66
241.10	3301.33
241.31	3314.84
241.52	1791.77
241.73	1817.98
241.95	3193.19
242.16	3763.35
242.37	1903.59
242.58	2045.72
242.79	3113.32
243.01	3247.26
243.22	2114.94
243.43	1739.54
243.64	3097.14
243.85	3540.73
244.06	1910.75
244.28	1888.23
244.49	3295.18
244.70	3800.01
244.91	2018.27
245.12	2032.40
245.34	3064.99
245.55	3288.42
245.76	1877.17
245.97	1880.24
246.18	3180.29
246.39	3253.81
246.61	2026.67
246.82	2002.09
247.03	3079.33
247.24	3213.06
247.45	1899.29
247.66	2014.79
247.88	2611.36
248.09	3364.20
248.30	1874.71
248.51	1805.69
248.72	3164.52
248.93	3231.49
249.15	1894.58
249.36	2294.54
249.57	3271.22
249.78	3546.88
249.99	2032.20
250.20	1862.42
250.41	3086.90
250.63	3308.70
250.84	1751.42
251.05	1973.22
251.26	2957.88
251.47	3101.03
251.68	2151.60
251.89	2215.70
252.11	2481.11
252.32	3204.05
252.53	1856.69
252.74	2028.72
252.95	3338.19
253.16	2733.83
253.37	1885.16
253.59	2016.84
253.80	3281.26
254.01	3328.56
254.22	1931.03
254.43	2315.64
254.64	3082.60
254.85	3403.72
255.07	1892.12
255.28	1898.88
255.49	2849.54
255.70	3550.97
255.91	1834.37
256.12	1862.83
256.33	3212.44
256.54	3625.52
256.76	1885.77
256.97	1895.80
257.18	2885.79
257.39	3269.79
257.60	2181.91
257.81	1941.88
258.02	3246.85
258.23	3514.72
258.45	2197.88
258.66	1918.13
258.87	3696.17
259.08	3620.81
259.29	1938.40
259.50	1994.31
259.71	3364.61
259.92	3724.03
260.13	1831.91
260.35	2002.71
260.56	3018.30
260.77	3619.38
260.98	1899.08
261.19	1943.93
261.40	2916.51
261.61	2684.68
261.82	1818.80
262.03	1973.01
262.25	3157.97
262.46	3594.39
262.67	2101.42
262.88	2034.66
263.09	3245.62
263.30	2951.33
263.51	1748.97
263.72	2085.04
263.93	3421.95
264.14	3753.11
264.36	1876.55
264.57	2120.88
264.78	3597.67
264.99	3436.29
265.20	1899.70
265.41	2204.84
265.62	2874.12
265.83	3641.90
266.04	2094.66
266.25	1939.02
266.46	3468.85
266.67	3335.73
266.89	1743.44
267.10	1863.04
267.31	3266.10
267.52	3200.36
267.73	2001.68
267.94	2034.45
268.15	3027.72
268.36	3579.23
268.57	1829.86
268.78	1903.18
268.99	2842.79
269.20	2884.36
269.41	1927.34
269.63	1853.00
269.84	2878.01
270.05	3554.04
270.26	1956.42
270.47	1954.79
270.68	3227.80
270.89	3644.16
271.10	1880.04
271.31	1960.73
271.52	2920.20
271.73	3254.63
271.94	1937.99
272.15	1990.63
272.36	2859.58
272.57	3620.40
272.78	2111.66
273.00	1912.60
273.21	2930.03
273.42	3420.31
273.63	1916.90
273.84	2028.31
274.05	2993.93
274.26	3295.59
274.47	2144.63
274.68	2336.53
274.89	3154.69
275.10	3206.71
275.31	2226.14
275.52	2247.65
275.73	3104.72
275.94	3238.45
276.15	2217.95
276.36	2046.94
276.57	2915.49
276.78	2966.28
276.99	2110.84
277.20	2056.78
277.41	3118.85
277.63	3107.59
277.84	2079.10
278.05	1986.73
278.26	2927.57
278.47	3031.81
278.68	2247.24
278.89	1881.06
279.10	3042.67
279.31	3109.43
279.52	2109.20
279.73	2079.71
279.94	3092.84
280.15	3541.76
280.36	2139.51
280.57	2276.73
280.78	3146.09
280.99	3140.15
281.20	2240.27
281.41	2024.83
281.62	2906.68
281.83	3152.03
282.04	2042.64
282.25	2251.33
282.46	3143.02
282.67	2729.12
282.88	2067.42
283.09	2072.34
283.30	3214.90
283.51	3218.18
283.72	2250.31
283.93	2187.85
284.14	3159.40
284.35	3039.19
284.56	1987.14
284.77	2100.19
284.98	2796.71
285.19	3209.17
285.40	2205.05
285.61	2179.04
285.82	3008.06
286.03	3214.08
286.24	1989.81
286.45	2030.97
286.66	2779.30
286.87	3293.95
287.08	2164.09
287.29	1979.98
287.50	3292.52
287.71	3222.48
287.92	2042.23
288.13	2066.81
288.34	2831.11
288.55	3086.70
288.76	1990.01
288.97	2169.00
289.18	2927.37
289.39	3070.72
289.60	1886.79
289.81	2192.96
290.02	3013.38
290.23	2984.91
290.44	2162.86
290.65	2140.54
290.86	2711.10
291.07	3169.03
291.28	2323.63
291.49	2011.31
291.70	3007.44
291.91	2655.19
292.12	2024.83
292.33	1954.79
292.54	3427.89
292.75	3261.39
292.96	2173.71
293.17	2214.47
293.38	3154.08
293.58	3290.88
293.79	1923.86
294.00	2266.49
294.21	2770.90
294.42	3438.13
294.63	2048.79
294.84	2076.23
295.05	3094.48
295.26	3475.20
295.47	1921.40
295.68	1951.51
295.89	2915.49
296.10	3298.46
296.31	2036.30
296.52	2243.14
296.73	2818.82
296.94	3132.37
297.15	2119.44
297.36	2284.92
297.57	2707.21
297.78	3115.17
297.98	2137.06
298.19	2452.65
298.40	3122.33
298.61	2987.37
298.82	2120.26
299.03	2426.23
299.24	3123.36
299.45	3581.49
299.66	1960.52
299.87	2047.15
300.08	2884.77
300.29	3121.31
300.50	1995.54
300.71	2263.01
300.92	3043.69
301.13	2983.89
301.33	2051.25
301.54	2276.52
301.75	2833.16
301.96	3174.76
302.17	2040.39
302.38	2005.99
302.59	3061.71
302.80	3283.71
303.01	2407.39
303.22	2360.08
303.43	3026.90
303.64	3179.06
303.85	2155.49
304.05	2151.80
304.26	3076.25
304.47	3031.61
304.68	2037.32
304.89	2152.62
305.10	2726.05
305.31	3075.03
305.52	2093.64
305.73	2050.22
305.94	2775.00
306.15	3141.38
306.35	2065.17
306.56	1979.16
306.77	2926.55
306.98	2958.70
307.19	2111.66
307.40	2158.97
307.61	3092.43
307.82	3192.17
308.03	2200.34
308.24	2312.16
308.45	3172.51
308.65	3388.77
308.86	2097.73
309.07	2224.09
309.28	2960.75
309.49	2831.73
309.70	2159.79
309.91	2000.87
310.12	2909.14
310.33	3046.56
310.53	1913.21
310.74	2069.88
310.95	3307.88
311.16	3162.06
311.37	1955.81
311.58	2285.12
311.79	3156.74
312.00	3000.07
312.20	2065.79
312.41	1959.91
312.62	3074.21
312.83	3290.27
313.04	2044.49
313.25	2363.77
313.46	2859.17
313.67	3292.52
313.87	2115.76
314.08	2207.92
314.29	2987.37
314.50	3305.42
314.71	2095.28
314.92	2015.20
315.13	3274.70
315.34	3195.45
315.54	2064.35
315.75	1945.16
315.96	2850.36
316.17	3068.27
316.38	1891.30
316.59	1972.19
316.80	3099.60
317.00	3267.12
317.21	2296.80
317.42	2071.73
317.63	2727.08
317.84	3009.29
318.05	2274.06
318.26	2072.34
318.46	3332.45
318.67	2592.93
318.88	2117.19
319.09	2175.76
319.30	2746.12
319.51	3111.07
319.71	2034.86
319.92	2037.93
320.13	3047.17
320.34	2699.22
320.55	2096.51
320.76	2118.42
320.97	2984.30
321.17	3182.75
321.38	2015.20
321.59	2100.81
321.80	3224.12
322.01	2941.50
322.22	2191.33
322.42	1972.60
322.63	2568.36
322.84	3458.81
323.05	2273.65
323.26	2226.55
323.47	2414.56
323.67	3067.65
323.88	1982.02
324.09	2179.45
324.30	3069.09
324.51	3134.21
324.71	1948.23
324.92	1996.77
325.13	3079.33
325.34	3035.70
325.55	1964.62
325.76	2156.92
325.96	3141.79
326.17	3334.30
326.38	1867.54
326.59	2162.45
326.80	3091.20
327.00	2946.82
327.21	1948.64
327.42	2330.18
327.63	2849.34
327.84	3032.02
328.04	2220.41
328.25	2012.74
328.46	2975.49
328.67	3075.84
328.88	2125.79
329.08	2013.56
329.29	2693.69
329.50	3025.05
329.71	2147.30
329.92	2020.53
330.12	2736.50
330.33	3074.41
330.54	2023.60
330.75	2508.35
330.96	3010.92
331.16	3055.36
331.37	1859.15
331.58	2203.41
331.79	2902.18
332.00	2994.13
332.20	1803.03
332.41	2121.49
332.62	3006.21
332.83	2906.07
333.03	1960.52
333.24	2572.66
333.45	3236.41
333.66	2812.07
333.87	2119.65
334.07	2051.25
334.28	2866.54
334.49	3307.06
334.70	2139.72
334.90	1855.46
335.11	3116.60
335.32	2921.22
335.53	1988.99
335.74	2170.44
335.94	3228.42
336.15	3283.10
336.36	2219.18
336.57	2179.86
336.77	2773.36
336.98	2557.30
337.19	2170.85
337.40	1973.01
337.60	2877.40
337.81	3013.59
338.02	1838.46
338.23	1855.87
338.43	2751.45
338.64	2954.40
338.85	2158.15
339.06	1986.53
339.26	2951.94
339.47	2882.52
339.68	1949.46
339.89	2211.40
340.09	3089.57
340.30	2895.42
340.51	2063.33
340.72	1952.33
340.92	3006.83
341.13	2972.63
341.34	1969.12
341.55	1965.03
341.75	2958.29
341.96	2850.36
342.17	1974.65
342.38	2061.08
342.58	3132.78
342.79	3208.55
343.00	2135.21
343.20	1991.04
343.41	2618.94
343.62	3059.87
343.83	2243.14
344.03	2036.50
344.24	2554.02
344.45	3282.07
344.66	1896.42
344.86	2170.03
345.07	2859.17
345.28	3112.71
345.48	2232.70
345.69	2091.39
345.90	2824.97
346.11	3124.18
346.31	2173.71
346.52	2092.82
346.73	2882.52
346.93	2954.40
347.14	1894.99
347.35	1786.85
347.56	3163.29
347.76	3254.02
347.97	1983.66
348.18	2131.12
348.38	3061.71
348.59	3252.38
348.80	1991.65
349.01	1947.62
349.21	2850.36
349.42	2826.20
349.63	2091.59
349.83	2165.52
350.04	3123.15
350.25	3189.71
350.45	2079.10
350.66	1955.20
350.87	2896.65
351.08	3039.80
351.28	2037.32
351.49	1992.26
351.70	2826.61
351.90	3501.21
352.11	1977.11
352.32	2456.54
352.52	3070.52
352.73	3108.20
352.94	2112.48
353.14	2102.24
353.35	2454.08
353.56	3262.00
353.76	2089.13
353.97	2196.86
354.18	3263.03
354.39	3147.93
354.59	2048.58
354.80	1929.80
355.01	2949.89
355.21	3309.72
355.42	2013.56
355.63	2179.86
355.83	2709.05
356.04	2982.25
356.25	2368.68
356.45	2401.04
356.66	2881.90
356.87	2925.32
357.07	2051.66
357.28	2044.49
357.49	2920.61
357.69	2609.32
357.90	1797.09
358.11	1829.04
358.31	3436.90
358.52	3148.14
358.72	2009.26
358.93	1900.11
359.14	3249.31
359.34	3255.66
359.55	2014.18
359.76	2046.54
359.96	2617.10
360.17	2552.59
360.38	2153.85
360.58	2004.14
360.79	3283.51
361.00	3191.76
361.20	1907.07
361.41	2045.92
361.62	2743.05
361.82	3189.71
362.03	2052.88
362.23	2072.54
362.44	3032.84
362.65	3310.75
362.85	2188.46
363.06	2220.61
363.27	2839.71
363.47	3193.19
363.68	2078.69
363.89	1997.59
364.09	3037.34
364.30	3286.58
364.50	2062.10
364.71	2187.44
364.92	2695.33
365.12	3168.00
365.33	2079.30
365.54	2122.72
365.74	2962.59
365.95	3065.60
366.15	2114.12
366.36	2231.88
366.57	3351.30
366.77	3202.61
366.98	1997.79
367.18	2129.07
367.39	3021.37
367.60	3211.62
367.80	1911.16
368.01	2158.97
368.22	2852.41
368.42	3357.85
368.63	2103.06
368.83	2138.69
369.04	2674.85
369.25	3410.28
369.45	2024.83
369.66	2299.05
369.86	2969.96
370.07	2951.94
370.28	1872.66
370.48	2315.23
370.69	2735.06
370.89	2918.77
371.10	1906.45
371.31	2203.82
371.51	2908.53
371.72	4929.46
371.92	2152.01
372.13	2206.69
372.33	3208.96
372.54	3047.38
372.75	1998.20
372.95	2133.98
373.16	2809.61
373.36	2837.46
373.57	2040.39
373.78	2193.37
373.98	3340.24
374.19	3091.61
374.39	1993.90
374.60	1980.39
374.80	3226.17
375.01	3019.93
375.22	1902.77
375.42	2158.97
375.63	2855.69
375.83	3315.05
376.04	2181.91
376.24	1877.99
376.45	2850.36
376.66	2772.34
376.86	1947.21
377.07	2026.67
377.27	2635.53
377.48	3179.88
377.68	2103.26
377.89	1947.41
378.09	2873.71
378.30	3044.72
378.51	1935.13
378.71	2112.48
378.92	2634.30
379.12	3083.83
379.33	1956.63
379.53	2396.12
379.74	3050.86
379.94	2898.90
380.15	2053.29
380.36	2069.06
380.56	3057.62
380.77	2931.46
380.97	2000.46
381.18	2257.07
381.38	2848.31
381.59	2842.17
381.79	1979.16
382.00	2168.80
382.20	2824.97
382.41	3045.12
382.61	2150.57
382.82	2004.14
383.03	2657.24
383.23	3368.91
383.44	1960.52
383.64	1958.47
383.85	2959.93
384.05	2978.98
384.26	1896.83
384.46	2129.48
384.67	3003.55
384.87	2862.65
385.08	1923.04
385.28	2072.75
385.49	3015.02
385.69	2847.91
385.90	2585.97
386.10	1901.13
386.31	2913.44
386.51	3207.53
386.72	1914.44
386.92	2177.40
387.13	2899.72
387.33	3168.41
387.54	2229.62
387.74	1920.38
387.95	3013.38
388.15	2879.24
388.36	2246.62
388.56	1929.19
388.77	2691.85
388.97	3125.00
389.18	2187.64
389.38	2126.20
389.59	3123.15
389.79	3159.61
390.00	2071.93
390.20	2592.52
390.41	2824.97
390.61	2983.48
390.82	1951.30
391.02	2019.50
391.23	3006.01
391.43	3331.43
391.64	2043.46
391.84	1943.73
392.05	2739.36
392.25	3080.96
392.46	2024.42
392.66	1930.21
392.87	2946.82
393.07	3072.98
393.28	1923.25
393.48	2061.69
393.69	3352.32
393.89	3024.44
394.10	2237.00
394.30	2007.21
394.51	2936.17
394.71	3052.70
394.92	1964.00
395.12	2116.99
395.32	4164.34
395.53	2868.79
395.73	2090.36
395.94	1979.16
396.14	3026.90
396.35	3164.93
396.55	2269.56
396.76	2003.32
396.96	3144.25
397.17	2929.82
397.37	2177.40
397.58	2228.60
397.78	2735.06
397.98	3123.77
398.19	2037.73
398.39	2244.57
398.60	2469.85
398.80	2992.70
399.01	2431.76
399.21	2132.14
399.42	3045.33
399.62	3025.67
399.83	2074.59
400.03	1893.96
400.23	2604.40
400.44	3145.48
400.64	2093.02
400.85	2192.56
401.05	2956.65
401.26	2735.47
401.46	2152.42
401.66	2323.01
401.87	3001.09
402.07	2642.90
402.28	1991.85
402.48	2190.10
402.69	3125.61
402.89	3021.57
403.09	2089.13
403.30	1903.79
403.50	3159.81
403.71	2835.21
403.91	2088.31
404.12	2554.02
404.32	2638.60
404.52	2784.42
404.73	2290.24
404.93	1968.92
405.14	2235.15
405.34	3225.14
405.54	2020.32
405.75	2180.27
405.95	3223.71
406.16	3071.54
406.36	2203.20
406.57	2073.36
406.77	3043.69
406.97	3095.71
407.18	2089.75
407.38	1946.80
407.59	3026.90
407.79	2971.60
407.99	2116.78
408.20	2147.50
408.40	3164.93
408.61	2545.01
408.81	2104.08
409.01	2082.99
409.22	3365.22
409.42	3155.10
409.63	2036.09
409.83	2067.01
410.03	2660.52
410.24	3142.40
410.44	2120.47
410.64	2337.96
410.85	2874.53
411.05	3075.03
411.26	2164.50
411.46	2002.91
411.66	3154.49
411.87	3115.98
412.07	1985.92
412.28	2178.63
412.48	3164.73
412.68	2726.05
412.89	2094.46
413.09	2244.16
413.29	3113.94
413.50	3398.19
413.70	1988.58
413.91	2216.11
414.11	2975.08
414.31	3059.67
414.52	1994.52
414.72	1997.38
414.92	3160.22
415.13	3136.26
415.33	1979.77
415.53	2077.05
415.74	3283.30
415.94	3128.27
416.14	2055.34
416.35	1857.10
416.55	3068.47
416.76	3047.99
416.96	2103.06
417.16	2073.98
417.37	2952.56
417.57	3046.56
417.77	1888.43
417.98	2154.87
418.18	2843.40
418.38	3181.52
418.59	2019.91
418.79	1990.01
418.99	2765.37
419.20	3201.38
419.40	2048.79
419.60	2216.72
419.81	2902.79
420.01	3055.16
420.21	2274.27
420.42	2216.11
420.62	2894.60
420.82	2933.10
421.03	1967.89
421.23	2169.62
421.43	2708.44
421.64	3013.38
421.84	1878.60
422.04	2038.34
422.25	2897.67
422.45	2815.34
422.65	1922.84
422.86	2249.28
423.06	2486.23
423.26	2947.64
423.47	1988.17
423.67	2142.99
423.87	2891.73
424.08	2643.93
424.28	2025.03
424.48	2169.00
424.68	2959.72
424.89	3041.85
425.09	2163.88
425.29	2200.34
425.50	2775.20
425.70	2859.58
425.90	2175.15
426.11	2020.94
426.31	3228.62
426.51	3096.32
426.71	2152.01
426.92	2176.38
427.12	3120.08
427.32	2976.52
427.53	2141.15
427.73	2314.41
427.93	3212.24
428.14	3282.07
428.34	2032.61
428.54	2206.07
428.74	3028.54
428.95	3294.57
429.15	1973.42
429.35	2103.67
429.56	2600.31
429.76	2913.24
429.96	2141.77
430.16	2082.78
430.37	2982.25
430.57	3062.12
430.77	2154.26
430.97	2146.68
431.18	2902.18
431.38	3140.56
431.58	2330.38
431.79	2112.89
