SpectraSuite Data File
++++++++++++++++++++++++++++++++++++
Date: Fri Nov 20 23:26:28 GMT 2020
User: Jason
Dark Spectrum Present: No
Reference Spectrum Present: No
Number of Sampled Component Spectra: 1
Spectrometers: USB4C01509
Integration Time (usec): 1000000 (USB4C01509)
Spectra Averaged: 10 (USB4C01509)
Boxcar Smoothing: 0 (USB4C01509)
Correct for Electrical Dark: No (USB4C01509)
Strobe/Lamp Enabled: No (USB4C01509)
Correct for Detector Non-linearity: No (USB4C01509)
Correct for Stray Light: No (USB4C01509)
Number of Pixels in Processed Spectrum: 3648
>>>>>Begin Processed Spectral Data<<<<<
179.08	1232.47
179.29	1232.47
179.50	1232.47
179.72	1197.04
179.93	1202.36
180.15	2516.13
180.36	2101.42
180.58	3485.85
180.79	3329.59
181.00	1994.72
181.22	2020.12
181.43	3359.08
181.65	3629.41
181.86	2226.76
182.08	1771.29
182.29	3593.37
182.50	3206.30
182.72	1905.43
182.93	2351.48
183.15	3307.47
183.36	3572.68
183.57	1814.71
183.79	2130.91
184.00	3179.47
184.22	3380.58
184.43	1983.87
184.65	2162.45
184.86	3208.35
185.07	3193.19
185.29	1780.09
185.50	1908.30
185.72	3426.25
185.93	3390.62
186.14	1985.51
186.36	1938.40
186.57	3009.08
186.79	3923.70
187.00	2059.44
187.21	2170.85
187.43	3556.71
187.64	3305.01
187.86	1944.55
188.07	2369.50
188.28	3118.44
188.50	3702.93
188.71	2263.42
188.93	1951.10
189.14	2915.69
189.35	2827.63
189.57	1963.39
189.78	2011.51
190.00	3078.92
190.21	3298.25
190.42	1897.24
190.64	1799.14
190.85	3294.98
191.07	3524.96
191.28	1906.66
191.49	2149.55
191.71	3219.61
191.92	3359.49
192.14	1805.08
192.35	2261.57
192.56	3294.16
192.78	3462.91
192.99	1959.09
193.20	2256.25
193.42	3426.87
193.63	3466.60
193.85	2211.19
194.06	1918.33
194.27	2912.01
194.49	3666.48
194.70	2141.56
194.91	1926.52
195.13	3046.97
195.34	3125.20
195.56	1994.52
195.77	2078.07
195.98	3450.62
196.20	3265.08
196.41	2026.87
196.62	2102.85
196.84	2914.05
197.05	3308.49
197.27	1874.30
197.48	2056.16
197.69	2807.77
197.91	3045.12
198.12	1972.19
198.33	1674.42
198.55	3876.40
198.76	3493.83
198.97	1882.29
199.19	1970.76
199.40	3008.47
199.61	3451.65
199.83	1950.28
200.04	1878.40
200.26	3083.63
200.47	3588.86
200.68	1957.86
200.90	1902.56
201.11	3401.27
201.32	3543.19
201.54	1780.09
201.75	2012.54
201.96	2816.57
202.18	2898.49
202.39	2204.23
202.60	1958.47
202.82	2685.91
203.03	3191.76
203.24	2097.94
203.46	2236.38
203.67	3148.96
203.88	3474.99
204.10	1954.38
204.31	1882.90
204.52	3426.66
204.74	3447.35
204.95	2029.54
205.16	2106.34
205.38	3417.45
205.59	3664.02
205.80	1969.12
206.02	1850.54
206.23	3830.11
206.44	3139.54
206.66	2024.62
206.87	1932.87
207.08	3086.08
207.30	3757.20
207.51	2149.14
207.72	2267.51
207.94	3253.40
208.15	3458.81
208.36	2112.89
208.58	2057.59
208.79	3282.07
209.00	3529.06
209.22	2020.53
209.43	2018.89
209.64	3159.61
209.86	3070.93
210.07	2073.36
210.28	1843.99
210.50	3193.19
210.71	3662.18
210.92	1992.88
211.13	1965.23
211.35	2750.83
211.56	3299.48
211.77	2104.08
211.99	1904.41
212.20	3042.67
212.41	3012.15
212.63	1857.92
212.84	2051.45
213.05	3731.19
213.27	3514.72
213.48	1900.31
213.69	2036.09
213.90	2405.13
214.12	3266.31
214.33	1817.98
214.54	2130.09
214.76	2893.78
214.97	3529.26
215.18	1831.91
215.40	2568.77
215.61	3372.19
215.82	3404.54
216.03	1825.76
216.25	1991.44
216.46	2854.66
216.67	3670.37
216.89	1846.04
217.10	1886.18
217.31	2760.25
217.52	3228.62
217.74	1948.23
217.95	2017.86
218.16	2886.61
218.38	3598.28
218.59	1847.27
218.80	2003.94
219.01	3162.88
219.23	3557.53
219.44	1840.10
219.65	1965.23
219.87	2539.07
220.08	3352.32
220.29	1889.25
220.50	2110.64
220.72	3434.85
220.93	3185.41
221.14	1953.97
221.35	2054.73
221.57	2936.79
221.78	3649.48
221.99	1913.21
222.21	1841.53
222.42	3044.72
222.63	3525.37
222.84	1884.95
223.06	2153.23
223.27	3219.41
223.48	4116.62
223.69	1793.82
223.91	2091.18
224.12	3102.26
224.33	3606.06
224.54	2168.39
224.76	1986.94
224.97	3160.63
225.18	3357.64
225.39	2040.39
225.61	2028.10
225.82	3215.93
226.03	3694.33
226.24	1829.25
226.46	2286.35
226.67	2522.07
226.88	3288.01
227.09	2151.60
227.31	2057.39
227.52	3247.87
227.73	3466.80
227.94	2000.25
228.16	2036.09
228.37	2999.66
228.58	3530.90
228.79	2055.75
229.01	2041.62
229.22	3086.29
229.43	3366.45
229.64	2231.06
229.86	2057.59
230.07	3264.46
230.28	3795.30
230.49	2141.97
230.71	1957.04
230.92	3230.67
231.13	3758.84
231.34	1987.96
231.55	2062.51
231.77	2795.07
231.98	3544.21
232.19	1882.49
232.40	1943.73
232.62	2750.01
232.83	3108.41
233.04	2116.99
233.25	2097.73
233.46	2898.49
233.68	3499.57
233.89	2269.56
234.10	2157.74
234.31	3158.17
234.53	3711.33
234.74	1921.81
234.95	2075.41
235.16	2986.55
235.37	3478.47
235.59	1709.03
235.80	2145.25
236.01	2764.96
236.22	3380.99
236.44	2026.87
236.65	1834.98
236.86	2820.67
237.07	3450.62
237.28	1972.60
237.50	1961.75
237.71	2662.15
237.92	5257.34
238.13	1841.33
238.34	2114.73
238.56	2599.08
238.77	3629.62
238.98	1881.47
239.19	1937.17
239.40	3120.90
239.62	3941.11
239.83	2157.33
240.04	2072.95
240.25	3068.88
240.46	3264.87
240.68	1837.44
240.89	1859.76
241.10	3325.08
241.31	3295.80
241.52	1799.96
241.73	1824.74
241.95	3189.51
242.16	3761.91
242.37	1903.59
242.58	2068.04
242.79	3088.34
243.01	3263.44
243.22	2120.67
243.43	1747.74
243.64	3100.62
243.85	3527.22
244.06	1939.63
244.28	1902.97
244.49	3309.52
244.70	3802.46
244.91	2009.47
245.12	2004.55
245.34	3053.11
245.55	3288.22
245.76	1852.80
245.97	1874.51
246.18	3173.94
246.39	3223.09
246.61	2041.82
246.82	2018.27
247.03	3061.51
247.24	3193.19
247.45	1915.26
247.66	1991.24
247.88	2630.82
248.09	3318.12
248.30	1864.47
248.51	1782.14
248.72	3147.32
248.93	3222.68
249.15	1892.73
249.36	2309.08
249.57	3303.58
249.78	3505.92
249.99	1996.77
250.20	1876.14
250.41	3052.29
250.63	3309.11
250.84	1739.34
251.05	1955.20
251.26	2962.39
251.47	3072.16
251.68	2142.18
251.89	2184.16
252.11	2476.61
252.32	3228.21
252.53	1848.50
252.74	1983.87
252.95	3336.14
253.16	2725.03
253.37	1907.27
253.59	1978.34
253.80	3255.86
254.01	3325.29
254.22	1897.65
254.43	2279.80
254.64	3066.22
254.85	3410.07
255.07	1888.64
255.28	1896.83
255.49	2838.48
255.70	3557.94
255.91	1860.78
256.12	1847.27
256.33	3216.33
256.54	3582.72
256.76	1853.82
256.97	1883.11
257.18	2939.86
257.39	3297.02
257.60	2147.91
257.81	1938.20
258.02	3257.09
258.23	3513.29
258.45	2171.05
258.66	1893.96
258.87	3676.92
259.08	3587.43
259.29	1924.27
259.50	1979.98
259.71	3336.55
259.92	3726.69
260.13	1826.58
260.35	1993.70
260.56	3026.69
260.77	3617.12
260.98	1881.67
261.19	1968.30
261.40	2907.91
261.61	2670.55
261.82	1806.72
262.03	1905.84
262.25	3200.16
262.46	3557.73
262.67	2115.96
262.88	2027.08
263.09	3228.01
263.30	2935.76
263.51	1729.10
263.72	2073.57
263.93	3451.44
264.14	3739.59
264.36	1867.13
264.57	2125.59
264.78	3599.31
264.99	3416.01
265.20	1880.04
265.41	2221.43
265.62	2867.16
265.83	3624.50
266.04	2103.26
266.25	1933.90
266.46	3462.50
266.67	3319.14
266.89	1733.20
267.10	1881.67
267.31	3317.09
267.52	3217.56
267.73	1983.05
267.94	2025.03
268.15	3019.53
268.36	3535.20
268.57	1803.03
268.78	1964.21
268.99	2798.96
269.20	2904.63
269.41	1912.39
269.63	1826.38
269.84	2912.01
270.05	3533.97
270.26	1938.61
270.47	1936.56
270.68	3252.58
270.89	3645.59
271.10	1901.33
271.31	1955.61
271.52	2945.80
271.73	3261.39
271.94	1945.98
272.15	1990.01
272.36	2827.02
272.57	3593.16
272.78	2086.88
273.00	1935.13
273.21	2892.35
273.42	3395.53
273.63	1938.40
273.84	2003.53
274.05	2988.81
274.26	3250.54
274.47	2126.82
274.68	2328.75
274.89	3167.39
275.10	3168.00
275.31	2235.15
275.52	2230.44
275.73	3099.60
275.94	3242.75
276.15	2193.17
276.36	2065.17
276.57	2915.69
276.78	2947.23
276.99	2073.36
277.20	2021.55
277.41	3095.30
277.63	3063.56
277.84	2055.75
278.05	1955.81
278.26	2903.61
278.47	3023.01
278.68	2256.45
278.89	1880.85
279.10	3029.97
279.31	3117.42
279.52	2068.24
279.73	2095.69
279.94	3079.74
280.15	3515.54
280.36	2126.20
280.57	2273.45
280.78	3142.20
280.99	3109.23
281.20	2240.07
281.41	1998.61
281.62	2916.72
281.83	3121.92
282.04	2032.61
282.25	2228.19
282.46	3145.07
282.67	2718.47
282.88	2059.44
283.09	2044.90
283.30	3209.78
283.51	3194.42
283.72	2231.88
283.93	2199.31
284.14	3154.28
284.35	3024.24
284.56	1974.24
284.77	2126.41
284.98	2760.66
285.19	3194.83
285.40	2179.65
285.61	2167.16
285.82	3022.39
286.03	3220.84
286.24	1951.51
286.45	2044.28
286.66	2776.23
286.87	3288.83
287.08	2174.94
287.29	2013.15
287.50	3282.89
287.71	3208.55
287.92	2019.30
288.13	2055.96
288.34	2850.57
288.55	3078.30
288.76	1971.37
288.97	2167.98
289.18	2926.14
289.39	3072.16
289.60	1879.22
289.81	2204.02
290.02	2968.94
290.23	2976.52
290.44	2146.48
290.65	2112.89
290.86	2719.09
291.07	3149.78
291.28	2286.97
291.49	1991.24
291.70	3001.30
291.91	2610.96
292.12	2053.91
292.33	1929.60
292.54	3425.02
292.75	3259.14
292.96	2176.58
293.17	2206.89
293.38	3143.84
293.58	3312.79
293.79	1899.49
294.00	2250.92
294.21	2806.33
294.42	3466.60
294.63	2044.49
294.84	2077.66
295.05	3085.47
295.26	3468.85
295.47	1906.45
295.68	1924.68
295.89	2918.97
296.10	3332.25
296.31	2055.34
296.52	2289.42
296.73	2806.95
296.94	3135.24
297.15	2106.13
297.36	2300.07
297.57	2677.72
297.78	3128.27
297.98	2139.10
298.19	2430.12
298.40	3110.45
298.61	2980.41
298.82	2127.02
299.03	2429.51
299.24	3120.08
299.45	3590.29
299.66	1916.90
299.87	2047.35
300.08	2896.24
300.29	3094.07
300.50	1998.61
300.71	2255.63
300.92	3075.03
301.13	3000.89
301.33	2064.15
301.54	2217.95
301.75	2849.13
301.96	3148.14
302.17	2031.79
302.38	1973.22
302.59	3029.56
302.80	3304.81
303.01	2413.94
303.22	2395.30
303.43	3044.31
303.64	3161.65
303.85	2168.18
304.05	2146.89
304.26	3037.75
304.47	3067.45
304.68	2017.25
304.89	2178.22
305.10	2689.39
305.31	3057.41
305.52	2066.61
305.73	2033.63
305.94	2737.11
306.15	3126.63
306.35	2093.64
306.56	1963.39
306.77	2910.57
306.98	2965.46
307.19	2089.75
307.40	2134.80
307.61	3064.58
307.82	3155.31
308.03	2220.61
308.24	2307.86
308.45	3185.41
308.65	3408.02
308.86	2089.75
309.07	2218.56
309.28	2942.52
309.49	2884.77
309.70	2130.30
309.91	1970.97
310.12	2899.10
310.33	3026.90
310.53	1899.08
310.74	2067.83
310.95	3292.52
311.16	3179.47
311.37	1956.22
311.58	2254.61
311.79	3140.15
312.00	2987.58
312.20	2046.33
312.41	1933.08
312.62	3053.73
312.83	3269.79
313.04	2048.99
313.25	2398.17
313.46	2864.08
313.67	3289.04
313.87	2104.70
314.08	2185.59
314.29	2984.30
314.50	3275.73
314.71	2107.77
314.92	1991.44
315.13	3307.26
315.34	3203.43
315.54	2069.06
315.75	1939.02
315.96	2837.46
316.17	3037.75
316.38	1861.19
316.59	1960.52
316.80	3089.36
317.00	3241.32
317.21	2298.23
317.42	2095.89
317.63	2742.23
317.84	2960.13
318.05	2293.32
318.26	2064.97
318.46	3326.11
318.67	2568.36
318.88	2089.95
319.09	2183.54
319.30	2745.30
319.51	3105.34
319.71	2038.96
319.92	2024.42
320.13	3047.38
320.34	2717.45
320.55	2087.49
320.76	2101.63
320.97	2957.88
321.17	3159.61
321.38	2033.43
321.59	2101.01
321.80	3219.61
322.01	2939.45
322.22	2178.42
322.42	1942.09
322.63	2574.09
322.84	3448.57
323.05	2258.09
323.26	2223.27
323.47	2403.09
323.67	3045.53
323.88	1985.71
324.09	2198.90
324.30	3030.99
324.51	3107.38
324.71	1925.50
324.92	1980.39
325.13	3052.70
325.34	3044.10
325.55	1931.85
325.76	2139.72
325.96	3145.07
326.17	3347.00
326.38	1857.30
326.59	2144.02
326.80	3091.00
327.00	2956.65
327.21	1937.58
327.42	2332.84
327.63	2831.52
327.84	3007.65
328.04	2210.37
328.25	1983.25
328.46	2948.05
328.67	3069.09
328.88	2129.07
329.08	2016.84
329.29	2688.98
329.50	3018.30
329.71	2154.67
329.92	2019.30
330.12	2759.02
330.33	3043.28
330.54	2012.33
330.75	2481.52
330.96	2994.34
331.16	3062.94
331.37	1851.16
331.58	2204.43
331.79	2885.38
332.00	3012.36
332.20	1778.05
332.41	2098.55
332.62	3015.02
332.83	2872.48
333.03	1945.57
333.24	2562.01
333.45	3223.09
333.66	2837.67
333.87	2129.07
334.07	2040.60
334.28	2850.57
334.49	3292.31
334.70	2137.26
334.90	1841.74
335.11	3104.11
335.32	2877.19
335.53	1986.94
335.74	2152.62
335.94	3240.09
336.15	3271.02
336.36	2237.41
336.57	2186.82
336.77	2806.54
336.98	2498.32
337.19	2147.50
337.40	1933.90
337.60	2858.96
337.81	3009.69
338.02	1847.27
338.23	1819.62
338.43	2721.75
338.64	2956.45
338.85	2151.19
339.06	1977.11
339.26	2958.09
339.47	2901.56
339.68	1931.23
339.89	2179.04
340.09	3056.39
340.30	2890.30
340.51	2037.11
340.72	1958.47
340.92	2989.22
341.13	2963.62
341.34	1946.39
341.55	1936.76
341.75	2964.43
341.96	2854.87
342.17	1948.64
342.38	2071.73
342.58	3129.50
342.79	3176.81
343.00	2134.19
343.20	1975.47
343.41	2622.42
343.62	3068.88
343.83	2269.56
344.03	2035.68
344.24	2543.58
344.45	3289.04
344.66	1871.84
344.86	2182.32
345.07	2874.73
345.28	3100.83
345.48	2224.71
345.69	2067.63
345.90	2822.31
346.11	3127.25
346.31	2183.34
346.52	2079.10
346.73	2890.50
346.93	2972.42
347.14	1859.15
347.35	1789.31
347.56	3127.25
347.76	3260.37
347.97	1958.06
348.18	2141.36
348.38	3064.17
348.59	3220.64
348.80	1967.69
349.01	1928.16
349.21	2840.33
349.42	2833.98
349.63	2103.26
349.83	2119.44
350.04	3106.15
350.25	3183.57
350.45	2054.11
350.66	1929.60
350.87	2889.48
351.08	3009.08
351.28	2041.01
351.49	1951.51
351.70	2808.58
351.90	3511.86
352.11	1958.47
352.32	2442.20
352.52	3041.03
352.73	3107.79
352.94	2088.52
353.14	2105.52
353.35	2442.82
353.56	3249.51
353.76	2103.47
353.97	2194.60
354.18	3263.64
354.39	3128.07
354.59	2041.01
354.80	1902.97
355.01	2953.17
355.21	3329.79
355.42	1992.88
355.63	2144.84
355.83	2706.60
356.04	2994.74
356.25	2337.76
356.45	2390.80
356.66	2846.27
356.87	2920.61
357.07	2037.52
357.28	2043.46
357.49	2890.09
357.69	2609.52
357.90	1776.20
358.11	1828.84
358.31	3428.09
358.52	3150.39
358.72	2016.63
358.93	1888.23
359.14	3250.74
359.34	3254.63
359.55	2014.18
359.76	2031.18
359.96	2602.35
360.17	2538.46
360.38	2123.74
360.58	1971.17
360.79	3289.45
361.00	3207.12
361.20	1904.82
361.41	2039.57
361.62	2754.72
361.82	3171.28
362.03	2074.18
362.23	2033.63
362.44	2998.84
362.65	3313.82
362.85	2172.49
363.06	2228.19
363.27	2829.47
363.47	3184.80
363.68	2075.62
363.89	1987.14
364.09	3049.22
364.30	3263.23
364.50	2057.39
364.71	2203.61
364.92	2680.18
365.12	3131.34
365.33	2041.82
365.54	2092.20
365.74	2954.81
365.95	3008.26
366.15	2108.79
366.36	2215.29
366.57	3313.61
366.77	3197.29
366.98	2002.71
367.18	2102.44
367.39	3030.79
367.60	3195.04
367.80	1912.39
368.01	2126.61
368.22	2880.06
368.42	3350.27
368.63	2066.40
368.83	2123.33
369.04	2640.04
369.25	3407.00
369.45	1997.59
369.66	2300.69
369.86	2973.04
370.07	2936.38
370.28	1866.31
370.48	2308.47
370.69	2738.34
370.89	2924.50
371.10	1867.54
371.31	2157.33
371.51	2895.01
371.72	3863.29
371.92	2138.08
372.13	2200.95
372.33	3216.13
372.54	3064.99
372.75	1970.76
372.95	2077.66
373.16	2809.40
373.36	2811.25
373.57	2045.31
373.78	2183.34
373.98	3341.06
374.19	3093.25
374.39	1999.43
374.60	1987.14
374.80	3241.93
375.01	2955.83
375.22	1903.59
375.42	2137.87
375.63	2856.71
375.83	3294.77
376.04	2180.47
376.24	1884.54
376.45	2880.06
376.66	2753.29
376.86	1940.25
377.07	2011.11
377.27	2645.77
377.48	3155.31
377.68	2090.77
377.89	1948.64
378.09	2865.93
378.30	3065.60
378.51	1957.65
378.71	2101.01
378.92	2615.46
379.12	3046.35
379.33	1928.98
379.53	2367.04
379.74	3034.07
379.94	2892.55
380.15	2048.99
380.36	2040.80
380.56	3029.97
380.77	2916.10
380.97	1995.13
381.18	2252.97
381.38	2837.87
381.59	2836.64
381.79	1969.33
382.00	2140.74
382.20	2800.80
382.41	3036.32
382.61	2138.28
382.82	1996.16
383.03	2624.06
383.23	3323.24
383.44	1950.90
383.64	1965.85
383.85	2925.11
384.05	2987.17
384.26	1892.73
384.46	2083.81
384.67	2989.83
384.87	2851.18
385.08	1916.49
385.28	2070.70
385.49	3018.09
385.69	2854.87
385.90	2575.94
386.10	1859.15
386.31	2893.98
386.51	3225.35
386.72	1922.43
386.92	2120.26
387.13	2913.65
387.33	3135.64
387.54	2240.48
387.74	1908.91
387.95	3008.88
388.15	2854.25
388.36	2208.73
388.56	1915.87
388.77	2707.01
388.97	3085.06
389.18	2162.86
389.38	2110.43
389.59	3107.79
389.79	3159.40
390.00	2041.82
390.20	2586.17
390.41	2833.16
390.61	2965.25
390.82	1956.83
391.02	2019.50
391.23	3011.13
391.43	3330.20
391.64	2040.19
391.84	1927.75
392.05	2730.15
392.25	3078.92
392.46	2024.21
392.66	1908.50
392.87	2954.81
393.07	3082.40
393.28	1927.34
393.48	2064.35
393.69	3323.03
393.89	2985.53
394.10	2228.19
394.30	2003.32
394.51	2933.72
394.71	3030.79
394.92	1952.74
395.12	2135.21
395.32	4131.57
395.53	2855.89
395.73	2091.39
395.94	1998.20
396.14	3017.48
396.35	3149.16
396.55	2262.19
396.76	1986.12
396.96	3134.42
397.17	2899.92
397.37	2167.37
397.58	2220.82
397.78	2706.80
397.98	3103.08
398.19	2030.15
398.39	2221.43
398.60	2437.90
398.80	2966.07
399.01	2443.23
399.21	2116.99
399.42	3038.78
399.62	3019.73
399.83	2050.84
400.03	1909.53
400.23	2618.74
400.44	3104.11
400.64	2068.24
400.85	2148.93
401.05	2955.83
401.26	2744.28
401.46	2167.16
401.66	2320.76
401.87	3025.46
402.07	2633.07
402.28	1985.30
402.48	2200.95
402.69	3110.05
402.89	3016.66
403.09	2082.37
403.30	1910.14
403.50	3144.66
403.71	2836.03
403.91	2095.28
404.12	2565.70
404.32	2636.55
404.52	2759.23
404.73	2270.38
404.93	1955.20
405.14	2225.53
405.34	3198.31
405.54	2003.32
405.75	2189.69
405.95	3223.30
406.16	3079.74
406.36	2207.51
406.57	2048.17
406.77	3005.19
406.97	3096.53
407.18	2079.30
407.38	1939.84
407.59	3023.21
407.79	2954.81
407.99	2111.25
408.20	2124.97
408.40	3167.80
408.61	2530.67
408.81	2119.85
409.01	2072.13
409.22	3351.71
409.42	3127.66
409.63	2059.85
409.83	2061.28
410.03	2650.69
410.24	3132.16
410.44	2099.58
410.64	2312.57
410.85	2881.29
411.05	3104.52
411.26	2118.62
411.46	1997.79
411.66	3171.28
411.87	3108.00
412.07	1984.07
412.28	2174.12
412.48	3146.91
412.68	2754.31
412.89	2095.89
413.09	2229.62
413.29	3116.19
413.50	3391.23
413.70	1990.22
413.91	2195.63
414.11	2990.44
414.31	3019.73
414.52	1991.24
414.72	1980.18
414.92	3140.56
415.13	3119.26
415.33	1963.18
415.53	2074.18
415.74	3271.43
415.94	3128.48
416.14	2055.14
416.35	1837.85
416.55	3048.20
416.76	3080.76
416.96	2104.90
417.16	2078.69
417.37	2982.05
417.57	3038.98
417.77	1875.32
417.98	2156.10
418.18	2840.74
418.38	3142.40
418.59	2013.97
418.79	1968.92
418.99	2729.33
419.20	3208.96
419.40	2030.15
419.60	2204.02
419.81	2921.22
420.01	3030.58
420.21	2283.89
420.42	2208.53
420.62	2890.09
420.82	2930.03
421.03	1957.65
421.23	2166.75
421.43	2692.67
421.64	2992.90
421.84	1858.53
422.04	2051.66
422.25	2897.26
422.45	2796.09
422.65	1886.59
422.86	2225.53
423.06	2521.66
423.26	2935.76
423.47	1984.28
423.67	2129.27
423.87	2904.63
424.08	2669.12
424.28	2019.09
424.48	2155.90
424.68	2959.31
424.89	3006.62
425.09	2128.86
425.29	2165.32
425.50	2753.29
425.70	2845.24
425.90	2217.54
426.11	2001.48
426.31	3227.60
426.51	3102.06
426.71	2173.92
426.92	2166.34
427.12	3132.57
427.32	2961.98
427.53	2144.22
427.73	2298.64
427.93	3207.94
428.14	3293.75
428.34	2004.35
428.54	2177.40
428.74	2987.37
428.95	3300.30
429.15	1964.82
429.35	2082.78
429.56	2592.11
429.76	2887.43
429.96	2128.25
430.16	2094.46
430.37	2939.86
430.57	3037.14
430.77	2157.13
430.97	2137.06
431.18	2881.29
431.38	3155.31
431.58	2325.26
431.79	2080.12
