SpectraSuite Data File
++++++++++++++++++++++++++++++++++++
Date: Fri Nov 20 23:27:38 GMT 2020
User: Jason
Dark Spectrum Present: No
Reference Spectrum Present: No
Number of Sampled Component Spectra: 1
Spectrometers: USB4C01509
Integration Time (usec): 1000000 (USB4C01509)
Spectra Averaged: 10 (USB4C01509)
Boxcar Smoothing: 0 (USB4C01509)
Correct for Electrical Dark: No (USB4C01509)
Strobe/Lamp Enabled: No (USB4C01509)
Correct for Detector Non-linearity: No (USB4C01509)
Correct for Stray Light: No (USB4C01509)
Number of Pixels in Processed Spectrum: 3648
>>>>>Begin Processed Spectral Data<<<<<
179.08	1186.18
179.29	1186.18
179.50	1186.18
179.72	1188.44
179.93	1197.65
180.15	2506.71
180.36	2084.42
180.58	3469.46
180.79	3330.82
181.00	1970.56
181.22	2046.94
181.43	3357.85
181.65	3635.14
181.86	2216.11
182.08	1805.49
182.29	3623.68
182.50	3189.10
182.72	1903.18
182.93	2369.50
183.15	3306.65
183.36	3545.65
183.57	1817.16
183.79	2140.74
184.00	3188.69
184.22	3432.81
184.43	2023.80
184.65	2182.32
184.86	3204.66
185.07	3216.74
185.29	1778.87
185.50	1943.73
185.72	3401.47
185.93	3390.62
186.14	1958.68
186.36	1964.82
186.57	3023.21
186.79	3894.01
187.00	2073.98
187.21	2151.19
187.43	3547.70
187.64	3312.79
187.86	1953.76
188.07	2367.66
188.28	3079.94
188.50	3719.73
188.71	2285.74
188.93	1967.48
189.14	2941.91
189.35	2855.07
189.57	1989.19
189.78	1981.20
190.00	3082.40
190.21	3301.12
190.42	1911.37
190.64	1821.46
190.85	3296.82
191.07	3515.75
191.28	1888.23
191.49	2183.75
191.71	3223.30
191.92	3354.37
192.14	1834.78
192.35	2281.23
192.56	3277.16
192.78	3491.99
192.99	1984.28
193.20	2297.62
193.42	3436.90
193.63	3471.31
193.85	2218.36
194.06	1923.45
194.27	2927.98
194.49	3672.42
194.70	2147.91
194.91	1928.98
195.13	3038.37
195.34	3110.45
195.56	1980.59
195.77	2082.17
195.98	3428.91
196.20	3277.57
196.41	2015.00
196.62	2125.59
196.84	2918.15
197.05	3284.33
197.27	1886.59
197.48	2081.15
197.69	2832.34
197.91	3028.33
198.12	1981.61
198.33	1706.98
198.55	3900.97
198.76	3493.02
198.97	1896.62
199.19	1966.66
199.40	3001.91
199.61	3480.11
199.83	1950.28
200.04	1865.29
200.26	3100.62
200.47	3611.80
200.68	1959.09
200.90	1899.70
201.11	3444.68
201.32	3581.28
201.54	1760.84
201.75	2034.04
201.96	2870.43
202.18	2920.81
202.39	2226.35
202.60	1965.85
202.82	2707.21
203.03	3176.81
203.24	2085.04
203.46	2198.70
203.67	3154.69
203.88	3514.31
204.10	2000.25
204.31	1892.32
204.52	3439.36
204.74	3461.27
204.95	2030.77
205.16	2089.54
205.38	3429.32
205.59	3681.22
205.80	1973.42
206.02	1837.03
206.23	3834.82
206.44	3149.57
206.66	2009.47
206.87	1955.40
207.08	3100.42
207.30	3730.99
207.51	2156.51
207.72	2228.80
207.94	3259.34
208.15	3504.48
208.36	2080.33
208.58	2047.97
208.79	3297.64
209.00	3510.01
209.22	1998.82
209.43	2014.18
209.64	3158.79
209.86	3052.09
210.07	2085.04
210.28	1852.80
210.50	3185.00
210.71	3685.32
210.92	1992.06
211.13	1987.96
211.35	2767.62
211.56	3274.29
211.77	2074.18
211.99	1936.56
212.20	2998.23
212.41	3037.55
212.63	1853.00
212.84	2053.91
213.05	3723.82
213.27	3506.12
213.48	1883.52
213.69	2033.63
213.90	2424.80
214.12	3313.61
214.33	1849.32
214.54	2139.31
214.76	2914.26
214.97	3509.81
215.18	1835.80
215.40	2585.36
215.61	3401.68
215.82	3400.24
216.03	1849.32
216.25	2011.72
216.46	2883.74
216.67	3643.34
216.89	1860.58
217.10	1868.98
217.31	2885.59
217.52	3256.88
217.74	1946.18
217.95	2030.36
218.16	2934.12
218.38	3599.92
218.59	1869.18
218.80	1994.11
219.01	3143.84
219.23	3583.33
219.44	1857.92
219.65	2000.46
219.87	2561.19
220.08	3360.31
220.29	1904.61
220.50	2119.44
220.72	3459.22
220.93	3194.01
221.14	1919.56
221.35	2073.77
221.57	2915.28
221.78	3649.07
221.99	1909.73
222.21	1854.64
222.42	3052.09
222.63	3524.35
222.84	1906.45
223.06	2157.33
223.27	3250.13
223.48	4130.34
223.69	1802.83
223.91	2127.43
224.12	3093.87
224.33	3606.88
224.54	2192.96
224.76	1989.19
224.97	3176.19
225.18	3374.23
225.39	2062.10
225.61	2038.75
225.82	3209.99
226.03	3710.51
226.24	1826.58
226.46	2284.10
226.67	2540.10
226.88	3297.84
227.09	2135.21
227.31	2065.58
227.52	3266.51
227.73	3454.72
227.94	2016.84
228.16	2055.34
228.37	2986.14
228.58	3550.15
228.79	2062.30
229.01	2026.67
229.22	3088.95
229.43	3357.64
229.64	2216.31
229.86	2069.47
230.07	3256.27
230.28	3800.83
230.49	2155.69
230.71	1971.17
230.92	3272.04
231.13	3774.82
231.34	1970.35
231.55	2082.17
231.77	2802.65
231.98	3542.17
232.19	1885.16
232.40	1941.47
232.62	2773.97
232.83	3098.37
233.04	2124.36
233.25	2098.35
233.46	2926.55
233.68	3518.21
233.89	2298.64
234.10	2170.03
234.31	3120.08
234.53	3752.90
234.74	1908.50
234.95	2075.41
235.16	2987.99
235.37	3528.85
235.59	1709.85
235.80	2177.61
236.01	2775.00
236.22	3365.84
236.44	2065.79
236.65	1849.32
236.86	2835.21
237.07	3435.06
237.28	1960.73
237.50	1992.67
237.71	2667.27
237.92	4428.12
238.13	1847.68
238.34	2115.55
238.56	2578.60
238.77	3665.04
238.98	1908.91
239.19	1923.45
239.40	3137.69
239.62	3958.72
239.83	2160.40
240.04	2083.81
240.25	3061.51
240.46	3250.54
240.68	1858.53
240.89	1888.23
241.10	3291.50
241.31	3298.87
241.52	1777.43
241.73	1818.19
241.95	3211.01
242.16	3766.01
242.37	1895.19
242.58	2069.47
242.79	3091.82
243.01	3274.91
243.22	2109.20
243.43	1749.99
243.64	3117.62
243.85	3527.63
244.06	1920.79
244.28	1891.30
244.49	3299.48
244.70	3790.38
244.91	1988.78
245.12	2004.14
245.34	3069.09
245.55	3298.46
245.76	1860.37
245.97	1870.61
246.18	3182.95
246.39	3202.61
246.61	2020.73
246.82	2011.92
247.03	3077.07
247.24	3254.84
247.45	1917.51
247.66	1969.74
247.88	2665.02
248.09	3339.62
248.30	1885.77
248.51	1782.14
248.72	3142.40
248.93	3237.43
249.15	1883.72
249.36	2328.54
249.57	3301.74
249.78	3508.17
249.99	2016.63
250.20	1895.60
250.41	3069.50
250.63	3298.46
250.84	1771.29
251.05	1960.52
251.26	2963.62
251.47	3088.95
251.68	2144.84
251.89	2200.34
252.11	2478.04
252.32	3159.40
252.53	1854.23
252.74	1998.61
252.95	3346.59
253.16	2717.86
253.37	1898.67
253.59	1997.79
253.80	3269.58
254.01	3367.48
254.22	1897.65
254.43	2309.08
254.64	3108.41
254.85	3419.90
255.07	1907.48
255.28	1856.69
255.49	2867.16
255.70	3526.40
255.91	1856.07
256.12	1855.46
256.33	3235.59
256.54	3622.65
256.76	1854.85
256.97	1882.49
257.18	2910.16
257.39	3286.58
257.60	2172.89
257.81	1929.39
258.02	3248.08
258.23	3543.19
258.45	2177.81
258.66	1921.81
258.87	3683.89
259.08	3596.44
259.29	1941.06
259.50	1988.58
259.71	3363.38
259.92	3712.56
260.13	1823.51
260.35	2003.32
260.56	3018.50
260.77	3601.76
260.98	1903.18
261.19	1966.66
261.40	2908.93
261.61	2697.99
261.82	1811.22
262.03	1949.46
262.25	3178.24
262.46	3578.21
262.67	2112.68
262.88	2037.52
263.09	3229.44
263.30	2949.89
263.51	1749.99
263.72	2091.59
263.93	3444.68
264.14	3723.82
264.36	1897.03
264.57	2142.99
264.78	3605.65
264.99	3412.12
265.20	1900.11
265.41	2219.18
265.62	2884.56
265.83	3679.59
266.04	2079.71
266.25	1936.15
266.46	3492.20
266.67	3331.84
266.89	1741.80
267.10	1854.85
267.31	3283.51
267.52	3192.99
267.73	1967.89
267.94	1994.11
268.15	3061.10
268.36	3565.31
268.57	1796.27
268.78	1915.47
268.99	2826.20
269.20	2908.12
269.41	1917.10
269.63	1820.64
269.84	2884.15
270.05	3533.77
270.26	1962.36
270.47	1973.01
270.68	3250.33
270.89	3644.57
271.10	1864.06
271.31	1948.64
271.52	2926.34
271.73	3290.47
271.94	1941.06
272.15	1976.49
272.36	2843.60
272.57	3627.16
272.78	2106.95
273.00	1942.50
273.21	2886.41
273.42	3433.42
273.63	1922.22
273.84	2003.32
274.05	3008.06
274.26	3245.62
274.47	2132.14
274.68	2342.47
274.89	3156.53
275.10	3195.04
275.31	2207.10
275.52	2212.42
275.73	3121.72
275.94	3261.80
276.15	2252.36
276.36	2071.11
276.57	2895.21
276.78	2948.46
276.99	2087.29
277.20	2051.86
277.41	3108.00
277.63	3086.70
277.84	2092.82
278.05	1963.18
278.26	2902.79
278.47	3012.97
278.68	2238.63
278.89	1898.06
279.10	3031.20
279.31	3120.29
279.52	2082.78
279.73	2102.24
279.94	3089.57
280.15	3531.93
280.36	2118.01
280.57	2271.40
280.78	3144.66
280.99	3121.72
281.20	2242.94
281.41	2018.48
281.62	2891.94
281.83	3135.24
282.04	2033.43
282.25	2241.91
282.46	3148.14
282.67	2739.98
282.88	2044.90
283.09	2064.56
283.30	3200.57
283.51	3208.76
283.72	2244.37
283.93	2212.83
284.14	3156.12
284.35	3002.73
284.56	1976.09
284.77	2101.01
284.98	2790.36
285.19	3219.00
285.40	2182.93
285.61	2155.69
285.82	3004.57
286.03	3229.24
286.24	1974.04
286.45	2011.31
286.66	2814.73
286.87	3313.61
287.08	2160.61
287.29	2004.14
287.50	3307.67
287.71	3211.22
287.92	2038.55
288.13	2069.47
288.34	2854.46
288.55	3073.80
288.76	1973.83
288.97	2193.37
289.18	2912.42
289.39	3056.80
289.60	1885.56
289.81	2200.95
290.02	2986.14
290.23	2979.38
290.44	2129.89
290.65	2120.47
290.86	2711.10
291.07	3144.45
291.28	2287.58
291.49	1997.18
291.70	2964.64
291.91	2596.21
292.12	2020.94
292.33	1956.83
292.54	3425.23
292.75	3301.53
292.96	2196.65
293.17	2210.99
293.38	3143.63
293.58	3291.50
293.79	1964.82
294.00	2261.37
294.21	2793.63
294.42	3472.13
294.63	2077.87
294.84	2067.22
295.05	3111.89
295.26	3486.67
295.47	1901.13
295.68	1918.13
295.89	2962.59
296.10	3321.81
296.31	2047.56
296.52	2279.39
296.73	2814.52
296.94	3131.96
297.15	2121.90
297.36	2281.03
297.57	2682.84
297.78	3113.53
297.98	2139.72
298.19	2463.91
298.40	3136.05
298.61	2956.04
298.82	2133.37
299.03	2393.05
299.24	3152.03
299.45	3614.26
299.66	1932.67
299.87	2069.27
300.08	2857.53
300.29	3106.36
300.50	2009.88
300.71	2236.79
300.92	3052.70
301.13	2965.87
301.33	2067.63
301.54	2261.98
301.75	2831.52
301.96	3164.52
302.17	2056.78
302.38	1992.88
302.59	3047.58
302.80	3294.16
303.01	2426.84
303.22	2352.50
303.43	3007.65
303.64	3190.12
303.85	2162.04
304.05	2142.18
304.26	3062.53
304.47	3036.93
304.68	2031.79
304.89	2156.92
305.10	2711.10
305.31	3057.21
305.52	2063.94
305.73	2033.02
305.94	2732.20
306.15	3144.04
306.35	2083.81
306.56	1971.99
306.77	2939.86
306.98	3009.69
307.19	2067.42
307.40	2146.27
307.61	3094.07
307.82	3160.83
308.03	2231.06
308.24	2342.06
308.45	3215.52
308.65	3422.57
308.86	2094.25
309.07	2252.56
309.28	2946.00
309.49	2847.50
309.70	2126.61
309.91	1984.28
310.12	2888.86
310.33	3050.45
310.53	1922.84
310.74	2062.92
310.95	3307.88
311.16	3170.46
311.37	1946.39
311.58	2291.88
311.79	3103.49
312.00	2984.91
312.20	2052.27
312.41	1955.61
312.62	3046.76
312.83	3284.12
313.04	2038.34
313.25	2396.33
313.46	2844.22
313.67	3297.23
313.87	2106.54
314.08	2215.49
314.29	2962.18
314.50	3303.78
314.71	2104.90
314.92	2009.26
315.13	3313.82
315.34	3193.40
315.54	2056.78
315.75	1944.34
315.96	2835.21
316.17	3018.50
316.38	1876.55
316.59	2006.80
316.80	3078.71
317.00	3276.55
317.21	2262.39
317.42	2055.34
317.63	2772.34
317.84	2985.53
318.05	2273.86
318.26	2060.26
318.46	3329.18
318.67	2579.42
318.88	2127.84
319.09	2200.13
319.30	2772.74
319.51	3130.73
319.71	2066.20
319.92	2058.00
320.13	3080.76
320.34	2735.47
320.55	2141.56
320.76	2159.58
320.97	3017.27
321.17	3213.06
321.38	2034.45
321.59	2162.25
321.80	3259.75
322.01	3014.20
322.22	2234.13
322.42	2003.53
322.63	2624.68
322.84	3475.20
323.05	2296.59
323.26	2303.76
323.47	2463.91
323.67	3098.37
323.88	2027.28
324.09	2206.69
324.30	3096.32
324.51	3182.13
324.71	1982.43
324.92	2061.08
325.13	3122.13
325.34	3047.58
325.55	2009.47
325.76	2216.11
325.96	3182.75
326.17	3410.28
326.38	1885.97
326.59	2219.38
326.80	3127.66
327.00	2998.02
327.21	2000.87
327.42	2378.10
327.63	2900.54
327.84	3066.83
328.04	2284.51
328.25	2071.52
328.46	3020.55
328.67	3092.02
328.88	2170.85
329.08	2039.37
329.29	2714.99
329.50	3038.78
329.71	2176.17
329.92	2052.88
330.12	2763.94
330.33	3097.76
330.54	2019.71
330.75	2488.69
330.96	3002.73
331.16	3071.54
331.37	1865.09
331.58	2219.59
331.79	2898.69
332.00	3003.55
332.20	1786.85
332.41	2107.97
332.62	3024.65
332.83	2869.61
333.03	1970.56
333.24	2564.47
333.45	3233.95
333.66	2862.65
333.87	2137.67
334.07	2032.40
334.28	2850.77
334.49	3312.59
334.70	2158.35
334.90	1862.63
335.11	3132.57
335.32	2902.38
335.53	1990.22
335.74	2163.27
335.94	3214.90
336.15	3279.82
336.36	2221.23
336.57	2150.57
336.77	2801.83
336.98	2528.42
337.19	2134.60
337.40	1950.08
337.60	2850.16
337.81	3000.89
338.02	1846.65
338.23	1818.80
338.43	2729.53
338.64	2963.00
338.85	2146.07
339.06	1999.43
339.26	2975.29
339.47	2865.31
339.68	1930.01
339.89	2181.70
340.09	3064.58
340.30	2909.75
340.51	2061.08
340.72	1919.97
340.92	3016.04
341.13	2980.41
341.34	1962.36
341.55	1952.53
341.75	2960.54
341.96	2841.97
342.17	1974.86
342.38	2058.41
342.58	3130.53
342.79	3223.50
343.00	2132.75
343.20	1977.93
343.41	2642.49
343.62	3047.99
343.83	2261.16
344.03	2039.37
344.24	2534.98
344.45	3322.83
344.66	1871.64
344.86	2199.72
345.07	2862.04
345.28	3104.52
345.48	2212.01
345.69	2074.39
345.90	2819.85
346.11	3137.49
346.31	2193.37
346.52	2079.30
346.73	2882.93
346.93	2965.66
347.14	1864.68
347.35	1787.26
347.56	3126.43
347.76	3259.14
347.97	1996.36
348.18	2130.30
348.38	3074.00
348.59	3237.43
348.80	1998.20
349.01	1923.04
349.21	2861.01
349.42	2810.02
349.63	2095.48
349.83	2140.54
350.04	3107.38
350.25	3170.67
350.45	2044.69
350.66	1934.10
350.87	2860.81
351.08	3034.88
351.28	2055.34
351.49	1958.06
351.70	2822.72
351.90	3485.03
352.11	1935.94
352.32	2450.80
352.52	3063.35
352.73	3106.77
352.94	2118.83
353.14	2087.90
353.35	2421.11
353.56	3249.31
353.76	2094.66
353.97	2180.27
354.18	3264.87
354.39	3120.29
354.59	2033.84
354.80	1923.86
355.01	2982.66
355.21	3339.83
355.42	2004.55
355.63	2136.85
355.83	2705.37
356.04	2978.57
356.25	2341.85
356.45	2387.32
356.66	2858.15
356.87	2937.61
357.07	2024.42
357.28	2029.13
357.49	2887.84
357.69	2583.72
357.90	1820.64
358.11	1835.80
358.31	3425.64
358.52	3152.23
358.72	2026.06
358.93	1899.90
359.14	3259.34
359.34	3257.50
359.55	1991.65
359.76	2018.27
359.96	2608.50
360.17	2558.32
360.38	2150.16
360.58	1980.39
360.79	3269.79
361.00	3179.27
361.20	1925.09
361.41	2039.78
361.62	2763.12
361.82	3191.55
362.03	2051.66
362.23	2055.34
362.44	2992.08
362.65	3296.41
362.85	2164.70
363.06	2245.39
363.27	2840.12
363.47	3216.95
363.68	2078.07
363.89	1974.24
364.09	3039.60
364.30	3279.82
364.50	2048.79
364.71	2198.70
364.92	2729.12
365.12	3139.54
365.33	2065.38
365.54	2120.67
365.74	2995.36
365.95	3045.94
366.15	2096.10
366.36	2225.53
366.57	3380.17
366.77	3214.70
366.98	2001.28
367.18	2115.96
367.39	3039.39
367.60	3189.71
367.80	1915.67
368.01	2137.26
368.22	2848.11
368.42	3356.62
368.63	2070.91
368.83	2115.96
369.04	2649.25
369.25	3374.64
369.45	2011.72
369.66	2279.39
369.86	2987.58
370.07	2964.03
370.28	1889.66
370.48	2283.89
370.69	2764.35
370.89	2912.42
371.10	1874.30
371.31	2171.46
371.51	2931.87
371.72	3888.27
371.92	2146.89
372.13	2189.69
372.33	3206.71
372.54	3067.45
372.75	1978.75
372.95	2125.59
373.16	2818.82
373.36	2847.70
373.57	2062.92
373.78	2193.78
373.98	3330.20
374.19	3087.11
374.39	1965.44
374.60	1982.84
374.80	3251.36
375.01	2977.95
375.22	1889.87
375.42	2149.14
375.63	2871.46
375.83	3292.31
376.04	2182.93
376.24	1889.25
376.45	2855.89
376.66	2758.61
376.86	1952.94
377.07	2021.96
377.27	2647.00
377.48	3169.23
377.68	2114.32
377.89	1994.31
378.09	2880.26
378.30	3024.85
378.51	1928.37
378.71	2138.49
378.92	2604.20
379.12	3046.35
379.33	1923.66
379.53	2338.58
379.74	3076.25
379.94	2878.83
380.15	2079.71
380.36	2086.47
380.56	3029.15
380.77	2933.72
380.97	1985.30
381.18	2253.38
381.38	2815.75
381.59	2879.85
381.79	1960.73
382.00	2146.07
382.20	2839.10
382.41	3053.52
382.61	2150.78
382.82	1998.00
383.03	2656.22
383.23	3324.06
383.44	1951.92
383.64	1961.95
383.85	2951.33
384.05	2964.23
384.26	1900.92
384.46	2115.76
384.67	2985.53
384.87	2834.80
385.08	1917.31
385.28	2058.21
385.49	2993.31
385.69	2838.08
385.90	2598.26
386.10	1893.14
386.31	2911.80
386.51	3233.74
386.72	1925.50
386.92	2179.04
387.13	2896.03
387.33	3133.19
387.54	2242.12
387.74	1926.52
387.95	3018.71
388.15	2876.99
388.36	2232.70
388.56	1923.86
388.77	2692.87
388.97	3150.39
389.18	2179.86
389.38	2116.37
389.59	3129.30
389.79	3136.26
390.00	2073.36
390.20	2563.65
390.41	2798.55
390.61	2987.99
390.82	1940.04
391.02	2015.41
391.23	3009.90
391.43	3323.44
391.64	2072.13
391.84	1965.03
392.05	2714.58
392.25	3125.61
392.46	2028.31
392.66	1913.62
392.87	2951.53
393.07	3091.00
393.28	1923.04
393.48	2063.94
393.69	3335.53
393.89	3027.92
394.10	2231.26
394.30	2023.39
394.51	2944.77
394.71	3038.16
394.92	1954.79
395.12	2117.80
395.32	4150.41
395.53	2883.54
395.73	2100.60
395.94	1982.64
396.14	3007.24
396.35	3180.29
396.55	2285.94
396.76	1974.45
396.96	3152.64
397.17	2945.59
397.37	2185.18
397.58	2245.39
397.78	2723.39
397.98	3112.50
398.19	2037.11
398.39	2247.65
398.60	2448.35
398.80	2972.01
399.01	2415.58
399.21	2125.38
399.42	3050.65
399.62	3040.62
399.83	2056.57
400.03	1906.04
400.23	2607.47
400.44	3130.12
400.64	2090.36
400.85	2167.57
401.05	2963.41
401.26	2753.29
401.46	2181.09
401.66	2333.05
401.87	3043.49
402.07	2636.76
402.28	2002.30
402.48	2218.77
402.69	3102.26
402.89	2996.59
403.09	2092.82
403.30	1909.94
403.50	3158.79
403.71	2833.98
403.91	2079.30
404.12	2543.78
404.32	2653.76
404.52	2759.02
404.73	2278.57
404.93	1934.92
405.14	2235.56
405.34	3241.93
405.54	2044.49
405.75	2183.13
405.95	3248.90
406.16	3074.82
406.36	2194.40
406.57	2045.92
406.77	3016.04
406.97	3088.75
407.18	2075.21
407.38	1941.47
407.59	3040.21
407.79	2966.48
407.99	2115.35
408.20	2122.31
408.40	3168.21
408.61	2560.78
408.81	2132.35
409.01	2058.62
409.22	3348.43
409.42	3122.54
409.63	2076.64
409.83	2082.78
410.03	2688.16
410.24	3151.82
410.44	2124.15
410.64	2327.52
410.85	2891.73
411.05	3111.89
411.26	2106.95
411.46	2004.55
411.66	3163.29
411.87	3106.15
412.07	2013.97
412.28	2156.10
412.48	3175.99
412.68	2731.17
412.89	2088.52
413.09	2238.02
413.29	3095.30
413.50	3414.78
413.70	1978.13
413.91	2195.22
414.11	2975.90
414.31	3043.69
414.52	1984.28
414.72	1973.01
414.92	3165.34
415.13	3120.49
415.33	1985.51
415.53	2057.18
415.74	3278.80
415.94	3129.71
416.14	2054.73
416.35	1883.11
416.55	3053.32
416.76	3064.38
416.96	2108.79
417.16	2062.30
417.37	2964.23
417.57	3023.83
417.77	1871.64
417.98	2167.57
418.18	2849.54
418.38	3157.15
418.59	1992.88
418.79	1979.36
418.99	2735.88
419.20	3208.76
419.40	2046.33
419.60	2246.01
419.81	2929.82
420.01	3050.04
420.21	2282.87
420.42	2204.43
420.62	2883.95
420.82	2967.51
421.03	1968.71
421.23	2169.21
421.43	2705.57
421.64	3026.08
421.84	1875.53
422.04	2019.91
422.25	2901.36
422.45	2781.35
422.65	1897.85
422.86	2245.60
423.06	2486.85
423.26	2935.35
423.47	1976.90
423.67	2148.93
423.87	2872.28
424.08	2694.31
424.28	2035.68
424.48	2159.58
424.68	2972.22
424.89	3008.06
425.09	2127.23
425.29	2172.89
425.50	2790.15
425.70	2837.87
425.90	2182.93
426.11	2071.32
426.31	3214.08
426.51	3087.93
426.71	2161.84
426.92	2168.59
427.12	3117.83
427.32	2959.11
427.53	2120.47
427.73	2327.31
427.93	3203.43
428.14	3287.19
428.34	1986.53
428.54	2179.86
428.74	3014.61
428.95	3309.11
429.15	2007.21
429.35	2064.76
429.56	2581.46
429.76	2892.55
429.96	2127.02
430.16	2089.34
430.37	2968.12
430.57	3026.08
430.77	2141.77
430.97	2162.65
431.18	2897.06
431.38	3167.80
431.58	2334.27
431.79	2068.04
