SpectraSuite Data File
++++++++++++++++++++++++++++++++++++
Date: Fri Nov 20 23:28:38 GMT 2020
User: Jason
Dark Spectrum Present: No
Reference Spectrum Present: No
Number of Sampled Component Spectra: 1
Spectrometers: USB4C01509
Integration Time (usec): 1000000 (USB4C01509)
Spectra Averaged: 10 (USB4C01509)
Boxcar Smoothing: 0 (USB4C01509)
Correct for Electrical Dark: No (USB4C01509)
Strobe/Lamp Enabled: No (USB4C01509)
Correct for Detector Non-linearity: No (USB4C01509)
Correct for Stray Light: No (USB4C01509)
Number of Pixels in Processed Spectrum: 3648
>>>>>Begin Processed Spectral Data<<<<<
179.08	1214.86
179.29	1214.86
179.50	1214.86
179.72	1194.58
179.93	1204.41
180.15	2508.35
180.36	2078.07
180.58	3502.44
180.79	3331.02
181.00	1990.22
181.22	2016.23
181.43	3354.57
181.65	3619.78
181.86	2224.30
182.08	1798.94
182.29	3617.12
182.50	3233.74
182.72	1934.92
182.93	2363.15
183.15	3339.83
183.36	3563.26
183.57	1828.02
183.79	2142.58
184.00	3204.25
184.22	3437.52
184.43	2004.35
184.65	2221.43
184.86	3221.86
185.07	3250.74
185.29	1770.88
185.50	1955.81
185.72	3436.70
185.93	3422.36
186.14	1994.72
186.36	1940.25
186.57	3027.51
186.79	3916.13
187.00	2061.69
187.21	2184.77
187.43	3554.86
187.64	3317.71
187.86	1952.74
188.07	2375.85
188.28	3127.66
188.50	3720.75
188.71	2277.96
188.93	1942.70
189.14	2955.22
189.35	2852.21
189.57	1976.29
189.78	2011.92
190.00	3095.91
190.21	3308.49
190.42	1934.31
190.64	1816.96
190.85	3313.41
191.07	3506.33
191.28	1908.71
191.49	2171.87
191.71	3246.44
191.92	3344.74
192.14	1817.98
192.35	2265.26
192.56	3283.30
192.78	3469.87
192.99	1951.30
193.20	2268.33
193.42	3421.75
193.63	3474.58
193.85	2244.16
194.06	1941.27
194.27	2937.61
194.49	3700.47
194.70	2149.75
194.91	1938.61
195.13	3046.97
195.34	3151.41
195.56	1968.92
195.77	2083.19
195.98	3440.38
196.20	3280.44
196.41	2023.39
196.62	2107.97
196.84	2944.57
197.05	3321.19
197.27	1887.00
197.48	2086.06
197.69	2835.41
197.91	3020.14
198.12	1974.86
198.33	1688.76
198.55	3888.27
198.76	3513.90
198.97	1886.18
199.19	1977.11
199.40	3011.95
199.61	3479.09
199.83	1945.78
200.04	1892.32
200.26	3088.75
200.47	3613.64
200.68	1957.65
200.90	1936.56
201.11	3449.39
201.32	3538.48
201.54	1752.65
201.75	2054.52
201.96	2854.87
202.18	2946.41
202.39	2224.71
202.60	1953.97
202.82	2742.84
203.03	3197.49
203.24	2123.33
203.46	2237.00
203.67	3181.72
203.88	3481.96
204.10	1999.43
204.31	1892.32
204.52	3449.80
204.74	3439.97
204.95	2034.66
205.16	2111.66
205.38	3430.55
205.59	3677.54
205.80	1951.51
206.02	1862.83
206.23	3858.58
206.44	3194.42
206.66	2021.55
206.87	1947.00
207.08	3117.21
207.30	3771.33
207.51	2132.14
207.72	2231.67
207.94	3290.27
208.15	3493.22
208.36	2091.39
208.58	2089.54
208.79	3303.78
209.00	3541.96
209.22	2041.82
209.43	2028.51
209.64	3164.52
209.86	3105.95
210.07	2111.05
210.28	1873.48
210.50	3158.17
210.71	3686.75
210.92	2026.06
211.13	1962.77
211.35	2759.84
211.56	3312.18
211.77	2120.88
211.99	1905.23
212.20	3018.30
212.41	3043.90
212.63	1860.78
212.84	2065.17
213.05	3741.43
213.27	3521.07
213.48	1872.46
213.69	2030.56
213.90	2408.82
214.12	3253.81
214.33	1876.14
214.54	2169.82
214.76	2912.21
214.97	3557.32
215.18	1823.31
215.40	2583.72
215.61	3408.64
215.82	3399.63
216.03	1847.88
216.25	2026.87
216.46	2858.55
216.67	3668.32
216.89	1861.40
217.10	1878.60
217.31	2842.38
217.52	3274.70
217.74	1986.12
217.95	2047.35
218.16	2914.46
218.38	3602.38
218.59	1850.54
218.80	1995.34
219.01	3126.43
219.23	3598.90
219.44	1846.45
219.65	1993.49
219.87	2538.05
220.08	3352.93
220.29	1899.08
220.50	2082.78
220.72	3441.82
220.93	3206.10
221.14	1933.08
221.35	2067.22
221.57	2951.94
221.78	3658.70
221.99	1903.38
222.21	1833.34
222.42	3036.52
222.63	3525.37
222.84	1913.83
223.06	2149.14
223.27	3280.44
223.48	4167.41
223.69	1791.56
223.91	2106.54
224.12	3141.38
224.33	3633.71
224.54	2191.12
224.76	1996.97
224.97	3201.38
225.18	3386.11
225.39	2073.77
225.61	2023.19
225.82	3198.11
226.03	3730.17
226.24	1830.06
226.46	2274.06
226.67	2544.81
226.88	3320.78
227.09	2119.24
227.31	2075.62
227.52	3266.92
227.73	3463.93
227.94	2012.13
228.16	2057.59
228.37	3002.73
228.58	3540.94
228.79	2060.87
229.01	2020.73
229.22	3058.23
229.43	3354.98
229.64	2221.23
229.86	2074.80
230.07	3262.62
230.28	3798.16
230.49	2154.87
230.71	1964.62
230.92	3286.38
231.13	3810.04
231.34	1988.99
231.55	2080.53
231.77	2805.31
231.98	3566.95
232.19	1864.88
232.40	1934.92
232.62	2790.56
232.83	3125.00
233.04	2117.39
233.25	2113.50
233.46	2924.50
233.68	3532.13
233.89	2273.86
234.10	2132.14
234.31	3151.82
234.53	3740.00
234.74	1909.73
234.95	2091.80
235.16	3012.97
235.37	3489.33
235.59	1696.74
235.80	2163.88
236.01	2775.82
236.22	3331.02
236.44	2070.09
236.65	1861.40
236.86	2827.63
237.07	3428.50
237.28	1975.88
237.50	1985.30
237.71	2657.24
237.92	4421.15
238.13	1840.71
238.34	2136.44
238.56	2593.55
238.77	3665.86
238.98	1899.29
239.19	1920.38
239.40	3096.73
239.62	3937.02
239.83	2189.48
240.04	2065.38
240.25	3080.96
240.46	3257.50
240.68	1850.54
240.89	1883.52
241.10	3321.60
241.31	3307.67
241.52	1802.42
241.73	1835.80
241.95	3196.67
242.16	3782.19
242.37	1867.75
242.58	2055.96
242.79	3092.02
243.01	3297.43
243.22	2082.78
243.43	1740.57
243.64	3107.59
243.85	3535.82
244.06	1914.03
244.28	1898.47
244.49	3307.67
244.70	3808.20
244.91	2013.15
245.12	2002.91
245.34	3078.92
245.55	3327.13
245.76	1875.94
245.97	1881.47
246.18	3172.30
246.39	3246.64
246.61	2043.87
246.82	2007.42
247.03	3085.67
247.24	3232.72
247.45	1922.43
247.66	1964.21
247.88	2656.42
248.09	3339.21
248.30	1861.19
248.51	1798.12
248.72	3114.96
248.93	3230.26
249.15	1914.85
249.36	2333.87
249.57	3285.97
249.78	3537.05
249.99	2022.98
250.20	1899.90
250.41	3033.66
250.63	3302.76
250.84	1777.23
251.05	1995.13
251.26	2986.76
251.47	3102.67
251.68	2144.02
251.89	2195.42
252.11	2474.77
252.32	3145.27
252.53	1850.34
252.74	2011.72
252.95	3348.43
253.16	2727.48
253.37	1894.37
253.59	2006.60
253.80	3276.55
254.01	3347.61
254.22	1890.68
254.43	2311.75
254.64	3089.57
254.85	3439.77
255.07	1887.00
255.28	1887.41
255.49	2853.84
255.70	3528.85
255.91	1840.30
256.12	1865.09
256.33	3222.27
256.54	3616.71
256.76	1886.59
256.97	1872.25
257.18	2903.81
257.39	3296.82
257.60	2173.10
257.81	1936.97
258.02	3284.12
258.23	3524.35
258.45	2198.70
258.66	1955.81
258.87	3709.69
259.08	3609.95
259.29	1919.77
259.50	2005.37
259.71	3358.46
259.92	3740.41
260.13	1844.61
260.35	1979.57
260.56	2993.72
260.77	3618.35
260.98	1927.14
261.19	1965.03
261.40	2889.48
261.61	2694.92
261.82	1818.80
262.03	1951.71
262.25	3199.34
262.46	3579.64
262.67	2081.35
262.88	2026.67
263.09	3275.93
263.30	2959.52
263.51	1752.86
263.72	2114.53
263.93	3468.44
264.14	3742.66
264.36	1910.75
264.57	2165.73
264.78	3611.80
264.99	3425.43
265.20	1904.61
265.41	2214.26
265.62	2860.19
265.83	3647.23
266.04	2116.17
266.25	1936.76
266.46	3503.46
266.67	3309.11
266.89	1733.20
267.10	1850.34
267.31	3280.85
267.52	3213.26
267.73	1981.61
267.94	2026.67
268.15	3049.22
268.36	3582.31
268.57	1829.45
268.78	1916.49
268.99	2854.46
269.20	2898.69
269.41	1912.19
269.63	1838.67
269.84	2912.21
270.05	3576.16
270.26	1973.63
270.47	1977.93
270.68	3263.23
270.89	3659.92
271.10	1901.54
271.31	1972.19
271.52	2949.08
271.73	3282.69
271.94	1930.62
272.15	1981.61
272.36	2853.64
272.57	3638.22
272.78	2095.69
273.00	1932.87
273.21	2911.19
273.42	3464.55
273.63	1920.18
273.84	2013.97
274.05	3003.14
274.26	3282.89
274.47	2124.56
274.68	2339.80
274.89	3155.72
275.10	3187.66
275.31	2213.04
275.52	2224.30
275.73	3130.12
275.94	3271.22
276.15	2238.84
276.36	2077.46
276.57	2896.03
276.78	2951.12
276.99	2098.76
277.20	2026.67
277.41	3120.49
277.63	3087.31
277.84	2075.00
278.05	1968.92
278.26	2955.83
278.47	3025.05
278.68	2241.71
278.89	1904.61
279.10	3049.63
279.31	3123.97
279.52	2088.52
279.73	2097.12
279.94	3107.18
280.15	3556.30
280.36	2158.35
280.57	2278.37
280.78	3139.13
280.99	3140.15
281.20	2269.56
281.41	2017.66
281.62	2910.98
281.83	3130.32
282.04	2024.42
282.25	2226.96
282.46	3157.76
282.67	2729.12
282.88	2069.68
283.09	2067.01
283.30	3224.12
283.51	3220.84
283.72	2247.65
283.93	2195.22
284.14	3166.77
284.35	3023.01
284.56	1967.69
284.77	2098.55
284.98	2806.95
285.19	3208.76
285.40	2200.75
285.61	2173.92
285.82	3003.35
286.03	3247.46
286.24	1990.83
286.45	2048.17
286.66	2796.91
286.87	3326.52
287.08	2185.18
287.29	1999.23
287.50	3290.88
287.71	3229.03
287.92	2052.47
288.13	2060.87
288.34	2853.64
288.55	3069.91
288.76	1992.88
288.97	2183.95
289.18	2937.40
289.39	3051.68
289.60	1899.49
289.81	2177.20
290.02	2983.07
290.23	2988.60
290.44	2161.22
290.65	2137.87
290.86	2690.21
291.07	3177.22
291.28	2326.29
291.49	2022.98
291.70	2995.15
291.91	2611.57
292.12	2036.91
292.33	1961.34
292.54	3415.81
292.75	3296.82
292.96	2162.25
293.17	2221.02
293.38	3130.32
293.58	3294.36
293.79	1922.84
294.00	2232.49
294.21	2866.13
294.42	3487.69
294.63	2051.04
294.84	2075.41
295.05	3090.38
295.26	3479.70
295.47	1903.59
295.68	1944.34
295.89	2961.57
296.10	3304.40
296.31	2062.71
296.52	2295.57
296.73	2815.14
296.94	3132.37
297.15	2122.31
297.36	2298.64
297.57	2706.60
297.78	3134.21
297.98	2162.25
298.19	2445.48
298.40	3149.57
298.61	2976.72
298.82	2099.78
299.03	2424.80
299.24	3139.33
299.45	3596.85
299.66	1972.60
299.87	2051.45
300.08	2875.14
300.29	3096.32
300.50	2017.86
300.71	2309.90
300.92	3086.49
301.13	2984.71
301.33	2082.37
301.54	2245.80
301.75	2873.10
301.96	3179.27
302.17	2062.51
302.38	2003.53
302.59	3054.75
302.80	3317.09
303.01	2391.21
303.22	2372.37
303.43	3017.68
303.64	3197.90
303.85	2171.26
304.05	2098.96
304.26	3083.22
304.47	3079.53
304.68	2045.31
304.89	2179.24
305.10	2707.21
305.31	3073.59
305.52	2081.56
305.73	2057.59
305.94	2749.40
306.15	3128.48
306.35	2070.91
306.56	1967.07
306.77	2913.65
306.98	2973.86
307.19	2098.96
307.40	2155.08
307.61	3101.65
307.82	3188.07
308.03	2252.36
308.24	2353.53
308.45	3205.89
308.65	3435.26
308.86	2079.10
309.07	2240.68
309.28	2942.93
309.49	2880.67
309.70	2150.98
309.91	1985.30
310.12	2906.89
310.33	3058.44
310.53	1918.95
310.74	2045.72
310.95	3291.29
311.16	3161.24
311.37	1949.26
311.58	2320.96
311.79	3149.98
312.00	2997.00
312.20	2060.26
312.41	1969.12
312.62	3063.56
312.83	3284.53
313.04	2055.14
313.25	2381.38
313.46	2882.11
313.67	3303.37
313.87	2105.11
314.08	2234.33
314.29	2969.15
314.50	3290.27
314.71	2127.23
314.92	1999.23
315.13	3297.23
315.34	3181.72
315.54	2068.86
315.75	1971.58
315.96	2832.14
316.17	3042.67
316.38	1888.64
316.59	1995.54
316.80	3103.90
317.00	3281.87
317.21	2298.03
317.42	2082.17
317.63	2776.02
317.84	3008.47
318.05	2276.11
318.26	2089.34
318.46	3375.46
318.67	2594.78
318.88	2127.84
319.09	2160.81
319.30	2742.64
319.51	3130.32
319.71	2056.57
319.92	2034.04
320.13	3030.17
320.34	2738.95
320.55	2082.37
320.76	2103.06
320.97	3008.26
321.17	3198.72
321.38	2035.48
321.59	2094.87
321.80	3225.55
322.01	2994.74
322.22	2192.15
322.42	1952.12
322.63	2592.52
322.84	3464.75
323.05	2265.87
323.26	2228.80
323.47	2445.48
323.67	3080.76
323.88	1997.38
324.09	2176.99
324.30	3068.68
324.51	3129.30
324.71	1943.52
324.92	1990.63
325.13	3072.77
325.34	3016.45
325.55	1956.83
325.76	2167.16
325.96	3142.40
326.17	3346.38
326.38	1849.73
326.59	2172.89
326.80	3115.17
327.00	2957.27
327.21	1958.88
327.42	2338.58
327.63	2854.25
327.84	3023.42
328.04	2188.66
328.25	2025.03
328.46	3024.24
328.67	3095.71
328.88	2132.55
329.08	2015.20
329.29	2678.33
329.50	3020.34
329.71	2143.20
329.92	2051.04
330.12	2771.52
330.33	3092.02
330.54	2038.34
330.75	2480.09
330.96	3054.95
331.16	3091.82
331.37	1873.07
331.58	2194.81
331.79	2939.65
332.00	2992.49
332.20	1812.86
332.41	2116.37
332.62	3022.19
332.83	2912.62
333.03	1953.76
333.24	2575.94
333.45	3250.33
333.66	2863.88
333.87	2150.78
334.07	1978.34
334.28	2831.93
334.49	3325.29
334.70	2151.80
334.90	1852.59
335.11	3109.64
335.32	2882.31
335.53	2017.86
335.74	2165.11
335.94	3276.34
336.15	3291.50
336.36	2229.01
336.57	2192.76
336.77	2781.35
336.98	2540.71
337.19	2128.45
337.40	1968.10
337.60	2893.58
337.81	3017.27
338.02	1857.92
338.23	1834.98
338.43	2746.74
338.64	2987.78
338.85	2147.50
339.06	1993.90
339.26	2970.58
339.47	2894.60
339.68	1935.94
339.89	2163.88
340.09	3062.33
340.30	2934.74
340.51	2049.20
340.72	1962.57
340.92	3049.43
341.13	2999.66
341.34	1938.81
341.55	1971.99
341.75	2951.94
341.96	2873.91
342.17	1979.36
342.38	2083.81
342.58	3151.21
342.79	3223.50
343.00	2162.86
343.20	2017.45
343.41	2670.96
343.62	3101.85
343.83	2293.93
344.03	2083.60
344.24	2616.89
344.45	3358.46
344.66	1974.04
344.86	2287.99
345.07	2953.38
345.28	3223.50
345.48	2343.90
345.69	2181.29
345.90	2961.57
346.11	3268.97
346.31	2360.90
346.52	2250.92
346.73	3026.08
346.93	3110.45
347.14	2041.01
347.35	1932.05
347.56	3272.45
347.76	3398.81
347.97	2147.09
348.18	2289.63
348.38	3235.59
348.59	3428.30
348.80	2128.86
349.01	2115.96
349.21	3027.72
349.42	3009.49
349.63	2283.28
349.83	2308.27
350.04	3247.46
350.25	3334.91
350.45	2212.63
350.66	2093.84
350.87	3050.86
351.08	3196.26
351.28	2208.32
351.49	2130.09
351.70	3012.36
351.90	3680.40
352.11	2126.82
352.32	2637.78
352.52	3258.11
352.73	3299.69
352.94	2283.08
353.14	2239.45
353.35	2599.28
353.56	3374.23
353.76	2212.83
353.97	2271.40
354.18	3378.33
354.39	3237.43
354.59	2087.29
354.80	1990.42
355.01	3029.76
355.21	3394.10
355.42	2056.57
355.63	2157.94
355.83	2722.98
356.04	3011.54
356.25	2357.01
356.45	2407.80
356.66	2904.43
356.87	2958.29
357.07	2052.27
357.28	2068.86
357.49	2901.77
357.69	2605.63
357.90	1798.53
358.11	1841.53
358.31	3425.02
358.52	3155.92
358.72	2027.90
358.93	1897.65
359.14	3258.52
359.34	3240.71
359.55	2006.19
359.76	2051.25
359.96	2653.35
360.17	2551.36
360.38	2153.85
360.58	1981.00
360.79	3264.67
361.00	3219.82
361.20	1921.61
361.41	2076.85
361.62	2777.25
361.82	3193.60
362.03	2071.93
362.23	2048.99
362.44	3009.49
362.65	3343.31
362.85	2173.71
363.06	2243.96
363.27	2829.27
363.47	3211.83
363.68	2089.13
363.89	2003.12
364.09	3044.51
364.30	3284.94
364.50	2070.09
364.71	2194.81
364.92	2694.72
365.12	3154.90
365.33	2064.76
365.54	2137.67
365.74	3004.17
365.95	3031.40
366.15	2122.51
366.36	2235.77
366.57	3332.66
366.77	3197.90
366.98	1995.54
367.18	2119.65
367.39	3040.82
367.60	3215.93
367.80	1924.27
368.01	2142.79
368.22	2892.14
368.42	3353.75
368.63	2089.13
368.83	2144.22
369.04	2652.32
369.25	3414.17
369.45	2027.28
369.66	2274.47
369.86	2975.29
370.07	2947.23
370.28	1893.35
370.48	2301.51
370.69	2743.25
370.89	2897.47
371.10	1910.96
371.31	2198.08
371.51	2921.22
371.72	4896.90
371.92	2164.09
372.13	2241.71
372.33	3182.95
372.54	3058.23
372.75	1983.66
372.95	2121.08
373.16	2817.80
373.36	2852.00
373.57	2084.42
373.78	2203.82
373.98	3336.35
374.19	3128.68
374.39	2000.87
374.60	1984.07
374.80	3238.45
375.01	2988.40
375.22	1907.68
375.42	2168.80
375.63	2859.37
375.83	3308.29
376.04	2221.02
376.24	1867.75
376.45	2877.19
376.66	2739.98
376.86	1928.16
377.07	2035.07
377.27	2649.46
377.48	3180.29
377.68	2080.53
377.89	1972.81
378.09	2905.86
378.30	3061.71
378.51	1945.57
378.71	2112.27
378.92	2617.10
379.12	3086.29
379.33	1939.63
379.53	2377.08
379.74	3069.09
379.94	2909.96
380.15	2071.32
380.36	2071.73
380.56	3086.29
380.77	2938.22
380.97	1986.73
381.18	2264.23
381.38	2837.46
381.59	2879.24
381.79	1984.48
382.00	2157.94
382.20	2850.57
382.41	3067.45
382.61	2162.04
382.82	2000.25
383.03	2658.06
383.23	3336.76
383.44	1948.64
383.64	1982.23
383.85	2960.34
384.05	2993.72
384.26	1902.97
384.46	2103.47
384.67	3005.39
384.87	2858.55
385.08	1934.51
385.28	2070.91
385.49	2994.74
385.69	2853.64
385.90	2586.79
386.10	1891.71
386.31	2893.58
386.51	3223.30
386.72	1939.22
386.92	2162.66
387.13	2893.37
387.33	3168.21
387.54	2237.41
387.74	1889.87
387.95	3027.92
388.15	2848.72
388.36	2239.25
388.56	1920.59
388.77	2667.68
388.97	3129.30
389.18	2183.75
389.38	2086.88
389.59	3122.13
389.79	3142.20
390.00	2057.39
390.20	2589.45
390.41	2834.59
390.61	2951.12
390.82	1941.88
391.02	2005.37
391.23	3009.08
391.43	3344.33
391.64	2022.57
391.84	1938.81
392.05	2726.87
392.25	3118.85
392.46	2026.67
392.66	1924.68
392.87	2931.26
393.07	3066.42
393.28	1909.12
393.48	2033.84
393.69	3322.83
393.89	2997.00
394.10	2237.82
394.30	1998.82
394.51	2963.21
394.71	3035.70
394.92	1961.54
395.12	2115.14
395.32	4153.49
395.53	2880.88
395.73	2115.35
395.94	1968.71
396.14	3028.54
396.35	3146.91
396.55	2298.23
396.76	1983.87
396.96	3141.99
397.17	2916.72
397.37	2171.26
397.58	2239.86
397.78	2706.60
397.98	3142.61
398.19	2037.73
398.39	2281.23
398.60	2450.80
398.80	2969.55
399.01	2401.45
399.21	2137.26
399.42	3081.17
399.62	2940.06
399.83	2062.71
400.03	1936.97
400.23	2633.48
400.44	3127.04
400.64	2095.07
400.85	2185.80
401.05	2914.05
401.26	2718.27
401.46	2177.61
401.66	2344.31
401.87	3032.43
402.07	2634.92
402.28	2013.97
402.48	2221.23
402.69	3095.10
402.89	3020.96
403.09	2105.93
403.30	1899.90
403.50	3153.26
403.71	2855.28
403.91	2099.37
404.12	2540.51
404.32	2645.98
404.52	2745.51
404.73	2268.13
404.93	1934.10
405.14	2232.49
405.34	3204.05
405.54	2013.36
405.75	2195.42
405.95	3241.93
406.16	3084.86
406.36	2230.24
406.57	2040.19
406.77	3035.29
406.97	3094.48
407.18	2047.76
407.38	1940.66
407.59	3025.46
407.79	2970.99
407.99	2113.71
408.20	2159.79
408.40	3191.35
408.61	2541.12
408.81	2126.20
409.01	2079.10
409.22	3358.46
409.42	3138.51
409.63	2067.22
409.83	2091.18
410.03	2681.00
410.24	3159.81
410.44	2133.98
410.64	2330.38
410.85	2884.56
411.05	3118.65
411.26	2127.43
411.46	2020.32
411.66	3151.21
411.87	3118.65
412.07	1961.13
412.28	2168.18
412.48	3157.35
412.68	2764.55
412.89	2103.67
413.09	2238.23
413.29	3119.88
413.50	3375.26
413.70	1976.70
413.91	2197.88
414.11	2998.64
414.31	3021.57
414.52	1987.35
414.72	1994.31
414.92	3128.68
415.13	3087.52
415.33	1969.53
415.53	2110.43
415.74	3260.98
415.94	3132.57
416.14	2076.64
416.35	1860.99
416.55	3059.67
416.76	3063.97
416.96	2095.48
417.16	2046.13
417.37	2977.75
417.57	3006.83
417.77	1907.48
417.98	2145.86
418.18	2826.20
418.38	3190.94
418.59	2012.74
418.79	1979.98
418.99	2772.74
419.20	3186.84
419.40	2033.63
419.60	2211.60
419.81	2966.48
420.01	3037.34
420.21	2307.04
420.42	2207.10
420.62	2912.21
420.82	2935.35
421.03	1971.78
421.23	2161.84
421.43	2700.25
421.64	3014.00
421.84	1850.75
422.04	2030.77
422.25	2908.53
422.45	2814.32
422.65	1884.13
422.86	2252.77
423.06	2504.87
423.26	2943.96
423.47	1983.66
423.67	2128.86
423.87	2925.93
424.08	2676.08
424.28	2034.04
424.48	2154.26
424.68	2957.88
424.89	3004.57
425.09	2138.90
425.29	2203.61
425.50	2759.64
425.70	2837.46
425.90	2168.39
426.11	1987.76
426.31	3222.07
426.51	3099.81
426.71	2143.40
426.92	2163.27
427.12	3128.89
427.32	2976.31
427.53	2145.86
427.73	2304.99
427.93	3210.81
428.14	3329.79
428.34	1995.34
428.54	2203.20
428.74	2988.19
428.95	3287.40
429.15	1999.43
429.35	2084.01
429.56	2597.44
429.76	2896.03
429.96	2142.99
430.16	2097.32
430.37	2974.06
430.57	3033.45
430.77	2166.75
430.97	2150.78
431.18	2909.14
431.38	3145.48
431.58	2320.96
431.79	2078.69
